#Wavelength     Flux
#[Angstrom]   [Counts]
3913.05     0.000000
3914.68     0.000000
3916.32     0.000000
3917.95     0.000000
3919.59     0.000000
3921.23     0.000000
3922.86     0.000000
3924.50     0.000000
3926.14     0.000000
3927.77     0.000000
3929.41     0.000000
3931.04     0.000000
3932.68     0.000000
3934.32     0.000000
3935.95     0.000000
3937.59     0.000000
3939.22     0.000000
3940.86     0.000000
3942.50     0.000000
3944.13     0.000000
3945.77     0.000000
3947.41     0.000000
3949.04    4900.240000
3950.68    3614.192000
3952.31    3014.072000
3953.95    2804.224000
3955.59    2922.153000
3957.22    3042.092000
3958.86    2975.966000
3960.49    2761.952000
3962.13    2375.074000
3963.77    2230.986000
3965.40    1624.555000
3967.04    1727.383000
3968.68    1845.218000
3970.31    2451.020000
3971.95    2859.356000
3973.59    2891.447000
3975.22    3228.095000
3976.86    3118.036000
3978.49    3182.809000
3980.13    3181.487000
3981.77    3143.299000
3983.40    2925.322000
3985.04    2668.950000
3986.67    3204.083000
3988.31    2755.487000
3989.95    3075.476000
3991.58    2895.140000
3993.22    2557.926000
3994.86    2576.271000
3996.49    2373.502000
3998.13    1879.364000
3999.76    1470.610000
4001.40    1609.038000
4003.04    1619.767000
4004.67    1965.211000
4006.31    1965.007000
4007.95    2365.041000
4009.58    2630.494000
4011.22    2805.344000
4012.85    3062.297000
4014.49    3056.682000
4016.13    3566.454000
4017.76    3057.031000
4019.40    3507.833000
4021.03    3434.629000
4022.67    3748.774000
4024.31    3612.177000
4025.94    3338.116000
4027.58    3273.268000
4029.22    3248.703000
4030.85    3082.773000
4032.49    3626.590000
4034.12    3832.792000
4035.76    3778.586000
4037.40    3627.490000
4039.03    3435.274000
4040.67    3630.337000
4042.30    3809.676000
4043.94    4061.283000
4045.58    3475.362000
4047.21    3501.242000
4048.85    3470.757000
4050.49    3697.464000
4052.12    3565.048000
4053.76    3984.651000
4055.39    3810.931000
4057.03    3328.475000
4058.67    3663.547000
4060.30    3828.023000
4061.94    3557.047000
4063.58    3630.801000
4065.21    3392.393000
4066.85    3621.146000
4068.49    3792.502000
4070.12    3943.051000
4071.76    3778.693000
4073.39    3956.644000
4075.03    3867.439000
4076.67    3373.786000
4078.30    3422.930000
4079.94    3545.571000
4081.57    3442.379000
4083.21    3416.312000
4084.85    3575.606000
4086.48    4026.826000
4088.12    3799.457000
4089.76    3466.312000
4091.39    3536.219000
4093.03    3329.573000
4094.66    3376.996000
4096.30    3693.998000
4097.94    3726.536000
4099.57    3662.236000
4101.21    3549.607000
4102.85    3605.088000
4104.48    3607.593000
4106.12    3546.812000
4107.75    3566.539000
4109.39    3514.714000
4111.03    3242.504000
4112.66    3321.980000
4114.30    3492.240000
4115.94    3562.439000
4117.57    3166.142000
4119.21    3354.219000
4120.84    3363.115000
4122.48    3390.232000
4124.12    3403.478000
4125.75    3058.010000
4127.39    3058.023000
4129.02    3106.200000
4130.66    2932.854000
4132.30    2832.921000
4133.93    2860.806000
4135.57    2759.960000
4137.20    2784.145000
4138.84    2889.797000
4140.48    2599.096000
4142.11    2871.334000
4143.75    3167.296000
4145.39    3261.645000
4147.02    3440.482000
4148.66    3363.558000
4150.30    3268.432000
4151.93    3365.896000
4153.57    3350.669000
4155.20    3380.439000
4156.84    3515.537000
4158.48    3272.793000
4160.11    3243.556000
4161.75    3164.765000
4163.39    3318.163000
4165.02    3253.648000
4166.66    3159.188000
4168.29    3668.585000
4169.93    3950.124000
4171.56    3779.746000
4173.20    3720.134000
4174.84    3493.828000
4176.47    3298.961000
4178.11    3282.966000
4179.75    3400.541000
4181.38    3342.307000
4183.02    3372.572000
4184.65    3646.979000
4186.29    3519.389000
4187.93    3314.458000
4189.56    3427.287000
4191.20    3379.653000
4192.84    3633.551000
4194.47    4043.363000
4196.11    3965.453000
4197.74    3870.340000
4199.38    3998.889000
4201.02    3948.870000
4202.65    3453.723000
4204.29    3546.791000
4205.93    3498.761000
4207.56    3258.389000
4209.20    3290.455000
4210.83    3453.519000
4212.47    3623.749000
4214.11    3697.026000
4215.74    3629.211000
4217.38    3493.172000
4219.02    3488.636000
4220.65    3464.529000
4222.29    3712.271000
4223.92    3717.098000
4225.56    3781.623000
4227.20    3607.436000
4228.83    3526.575000
4230.47    3785.875000
4232.10    3648.758000
4233.74    3555.152000
4235.38    3485.600000
4237.01    3398.613000
4238.65    3634.196000
4240.29    3635.037000
4241.92    3590.010000
4243.56    3656.687000
4245.19    3866.241000
4246.83    3883.779000
4248.47    3733.490000
4250.10    3531.681000
4251.74    3489.520000
4253.38    3787.028000
4255.01    3559.654000
4256.65    3401.885000
4258.28    3330.147000
4259.92    3370.668000
4261.56    3096.199000
4263.19    3173.030000
4264.83    3488.843000
4266.47    3796.526000
4268.10    3931.396000
4269.74    3614.797000
4271.37    3568.770000
4273.01    3525.629000
4274.65    3480.253000
4276.28    3532.426000
4277.92    3795.638000
4279.56    3637.048000
4281.19    3621.696000
4282.83    3540.163000
4284.46    3626.389000
4286.10    3655.524000
4287.74    3769.400000
4289.37    3633.769000
4291.01    3474.546000
4292.65    3481.765000
4294.28    3477.482000
4295.92    3481.268000
4297.55    3847.278000
4299.19    3886.839000
4300.83    3774.625000
4302.46    3699.329000
4304.10    3581.280000
4305.73    3567.877000
4307.37    3143.625000
4309.01    3269.691000
4310.64    3343.371000
4312.28    3502.381000
4313.92    3759.225000
4315.55    3717.274000
4317.19    3777.387000
4318.82    3846.793000
4320.46    3669.818000
4322.10    3360.353000
4323.73    3524.372000
4325.37    3158.900000
4327.01    3352.289000
4328.64    3477.382000
4330.28    3327.685000
4331.91    3453.265000
4333.55    3368.797000
4335.19    3131.968000
4336.82    2758.514000
4338.46    3119.475000
4340.10    2949.503000
4341.73    3134.774000
4343.37    2924.169000
4345.00    3048.548000
4346.64    3272.372000
4348.28    3609.437000
4349.91    3664.820000
4351.55    3824.855000
4353.19    3937.731000
4354.82    3651.333000
4356.46    3779.327000
4358.09    3579.309000
4359.73    3104.995000
4361.36    3085.402000
4363.00    3327.835000
4364.64    3435.786000
4366.27    3496.002000
4367.91    3242.890000
4369.55    3294.055000
4371.18    3173.143000
4372.82    3134.852000
4374.45    3498.164000
4376.09    3707.092000
4377.73    3551.584000
4379.36    3440.611000
4381.00    3220.405000
4382.64    3071.183000
4384.27    3412.139000
4385.91    3516.281000
4387.55    3580.204000
4389.18    3543.273000
4390.82    3331.346000
4392.45    3693.939000
4394.09    4088.709000
4395.73    3889.638000
4397.36    3945.068000
4399.00    3988.279000
4400.63    3999.546000
4402.27    3849.564000
4403.91    3870.385000
4405.54    3954.149000
4407.18    3825.385000
4408.81    3862.420000
4410.45    3698.973000
4412.09    3757.384000
4413.72    3839.340000
4415.36    3694.620000
4417.00    3710.990000
4418.63    3480.810000
4420.27    3673.416000
4421.90    3216.410000
4423.54    3336.995000
4425.18    3364.630000
4426.81    3599.812000
4428.45    3665.214000
4430.09    4050.897000
4431.72    3820.074000
4433.36    3986.421000
4434.99    3801.628000
4436.63    3675.100000
4438.27    3903.101000
4439.90    3807.558000
4441.54    3637.202000
4443.18    3782.127000
4444.81    4074.632000
4446.45    3699.621000
4448.08    3820.703000
4449.72    3785.017000
4451.36    3879.384000
4452.99    3592.358000
4454.63    4291.485000
4456.27    4129.280000
4457.90    4087.663000
4459.54    3823.186000
4461.17    3780.689000
4462.81    3942.695000
4464.45    3961.057000
4466.08    3682.149000
4467.72    3916.994000
4469.35    3598.160000
4470.99    3759.229000
4472.63    4056.753000
4474.26    3840.098000
4475.90    3823.179000
4477.54    4360.461000
4479.17    4070.396000
4480.81    3936.040000
4482.44    4081.093000
4484.08    4464.839000
4485.72    3952.200000
4487.35    4019.746000
4488.99    3978.062000
4490.62    3901.508000
4492.26    3888.901000
4493.90    3557.135000
4495.53    3867.399000
4497.17    4037.263000
4498.81    3916.777000
4500.44    3919.498000
4502.08    4057.121000
4503.72    4052.074000
4505.35    3924.200000
4506.99    3847.173000
4508.62    4126.976000
4510.26    3887.556000
4511.90    4401.571000
4513.53    4572.167000
4515.17    4414.062000
4516.81    3993.917000
4518.44    4168.614000
4520.08    4026.865000
4521.71    4245.030000
4523.35    4363.443000
4524.99    4263.149000
4526.62    4194.538000
4528.26    4006.930000
4529.90    4425.182000
4531.53    3837.906000
4533.17    4130.462000
4534.80    4306.878000
4536.44    4136.515000
4538.08    4227.774000
4539.71    4434.198000
4541.35    4275.764000
4542.98    4512.454000
4544.62    4395.995000
4546.26    4772.914000
4547.89    4242.521000
4549.53    4115.977000
4551.17    4025.709000
4552.80    4397.809000
4554.44    4228.876000
4556.07    4191.014000
4557.71    4358.337000
4559.35    4282.105000
4560.98    4061.157000
4562.62    4231.240000
4564.26    4082.626000
4565.89    4035.535000
4567.53    4093.645000
4569.16    4021.724000
4570.80    3952.868000
4572.44    4074.529000
4574.07    4254.830000
4575.71    4062.700000
4577.35    4251.962000
4578.98    4193.417000
4580.62    4225.652000
4582.25    4225.553000
4583.89    4098.164000
4585.53    3927.924000
4587.16    4111.571000
4588.80    4134.815000
4590.43    3777.674000
4592.07    3996.999000
4593.71    4120.874000
4595.34    4266.537000
4596.98    4190.633000
4598.61    4451.002000
4600.25    4176.364000
4601.89    4106.857000
4603.52    4279.537000
4605.16    4244.125000
4606.80    4140.047000
4608.43    4085.812000
4610.07    4358.067000
4611.70    4370.108000
4613.34    4404.139000
4614.98    4328.497000
4616.61    4139.557000
4618.25    4189.460000
4619.89    4194.696000
4621.52    4493.107000
4623.16    4059.875000
4624.79    4204.979000
4626.43    4224.852000
4628.07    4240.298000
4629.70    4148.180000
4631.34    4157.782000
4632.98    4198.772000
4634.61    4240.741000
4636.25    4198.379000
4637.88    4221.234000
4639.52    4140.376000
4641.16    4291.946000
4642.79    4351.778000
4644.43    4375.089000
4646.06    4264.698000
4647.70    4252.788000
4649.34    4678.470000
4650.97    4627.150000
4652.61    4570.269000
4654.25    4501.476000
4655.88    4452.081000
4657.52    4342.509000
4659.15    4412.513000
4660.79    4530.945000
4662.43    4506.138000
4664.06    4652.702000
4665.70    4515.478000
4667.34    4149.990000
4668.97    4350.023000
4670.61    4514.683000
4672.24    4369.111000
4673.88    4217.116000
4675.52    4195.627000
4677.15    4170.801000
4678.79    4327.396000
4680.43    4416.203000
4682.06    4389.533000
4683.70    4351.019000
4685.33    4354.619000
4686.97    4175.694000
4688.61    4131.584000
4690.24    4232.707000
4691.88    4248.271000
4693.52    4267.992000
4695.15    4268.188000
4696.79    4424.174000
4698.42    4374.928000
4700.06    4525.845000
4701.70    4332.175000
4703.33    4040.256000
4704.97    3962.114000
4706.60    4082.157000
4708.24    4076.171000
4709.88    4099.808000
4711.51    4253.225000
4713.15    4353.983000
4714.79    4304.589000
4716.42    4289.540000
4718.06    4307.162000
4719.69    4300.909000
4721.33    4180.382000
4722.97    4194.765000
4724.60    4367.824000
4726.24    4283.891000
4727.88    4336.811000
4729.51    4223.411000
4731.15    4269.407000
4732.78    4232.846000
4734.42    4402.542000
4736.06    4411.831000
4737.69    4211.429000
4739.33    4237.461000
4740.97    4133.269000
4742.60    4247.181000
4744.24    4287.589000
4745.87    4206.048000
4747.51    4343.421000
4749.15    4394.014000
4750.78    4281.478000
4752.42    4267.588000
4754.06    4321.819000
4755.69    4450.168000
4757.33    4580.514000
4758.96    4589.854000
4760.60    4633.301000
4762.24    4686.714000
4763.87    4477.910000
4765.51    4181.157000
4767.15    4161.082000
4768.78    4343.058000
4770.42    4384.572000
4772.05    4309.558000
4773.69    4239.318000
4775.33    4557.293000
4776.96    4393.411000
4778.60    4330.763000
4780.23    4425.271000
4781.87    4604.061000
4783.51    4661.828000
4785.14    4411.890000
4786.78    4361.428000
4788.41    4533.299000
4790.05    4589.871000
4791.69    4478.869000
4793.32    4490.250000
4794.96    4351.981000
4796.60    4421.135000
4798.23    4605.709000
4799.87    4375.316000
4801.51    4223.292000
4803.14    4247.260000
4804.78    4347.708000
4806.41    4488.363000
4808.05    4194.124000
4809.69    4309.593000
4811.32    4295.151000
4812.96    4381.009000
4814.59    4539.005000
4816.23    4417.146000
4817.87    4472.661000
4819.50    4557.769000
4821.14    4509.819000
4822.77    4502.194000
4824.41    4548.153000
4826.05    4487.597000
4827.68    4268.494000
4829.32    4472.781000
4830.96    4829.560000
4832.59    4539.191000
4834.23    4448.564000
4835.86    4658.921000
4837.50    4486.982000
4839.14    4429.298000
4840.77    4337.067000
4842.41    4310.453000
4844.05    4241.155000
4845.68    4370.880000
4847.32    4429.468000
4848.95    4547.181000
4850.59    4514.641000
4852.23    4549.104000
4853.86    4618.351000
4855.50    4670.156000
4857.14    4694.125000
4858.77    4784.272000
4860.41    4615.229000
4862.04    4356.086000
4863.68    4481.197000
4865.32    4449.864000
4866.95    4393.670000
4868.59    4547.432000
4870.23    4410.425000
4871.86    4511.667000
4873.50    4497.310000
4875.13    4311.203000
4876.77    4330.804000
4878.41    4337.257000
4880.04    4243.257000
4881.68    4136.196000
4883.31    4143.817000
4884.95    4242.523000
4886.59    4000.462000
4888.22    4035.184000
4889.86    3907.176000
4891.50    3850.244000
4893.13    3915.697000
4894.77    3866.539000
4896.40    3975.460000
4898.04    4589.203000
4899.68    5354.205000
4901.31    5954.674000
4902.95    5449.381000
4904.59    4530.775000
4906.22    4182.707000
4907.86    3785.486000
4909.49    3779.560000
4911.13    3671.645000
4912.77    3803.278000
4914.40    3891.574000
4916.04    3958.657000
4917.68    4174.619000
4919.31    3992.807000
4920.95    4013.345000
4922.58    4011.594000
4924.22    4105.886000
4925.86    4009.333000
4927.49    4117.663000
4929.13    3909.109000
4930.77    3994.561000
4932.40    4238.868000
4934.04    4315.867000
4935.67    4559.000000
4937.31    4703.008000
4938.95    4493.887000
4940.58    4427.986000
4942.22    4391.208000
4943.85    4281.876000
4945.49    4506.859000
4947.13    4403.300000
4948.76    4463.536000
4950.40    4366.776000
4952.04    4257.415000
4953.67    4483.952000
4955.31    4565.932000
4956.94    4215.040000
4958.58    4138.794000
4960.22    4063.349000
4961.85    4130.515000
4963.49    3889.496000
4965.12    4447.132000
4966.76    4535.646000
4968.40    4360.471000
4970.03    4577.687000
4971.67    4676.464000
4973.31    4492.676000
4974.94    4499.492000
4976.58    4211.109000
4978.22    4216.032000
4979.85    4489.059000
4981.49    4370.745000
4983.12    4370.453000
4984.76    4727.837000
4986.40    4400.361000
4988.03    4653.637000
4989.67    4944.091000
4991.31    4659.833000
4992.94    4576.254000
4994.58    4764.534000
4996.21    4516.576000
4997.85    4405.910000
4999.49    4378.683000
5001.12    4536.543000
5002.76    4619.737000
5004.39    4631.179000
5006.03    4345.515000
5007.67    4481.669000
5009.30    4450.517000
5010.94    4300.145000
5012.57    4225.943000
5014.21    4531.321000
5015.85    4397.757000
5017.48    4369.686000
5019.12    4363.839000
5020.76    4257.610000
5022.39    4378.266000
5024.03    4149.131000
5025.66    4150.770000
5027.30    4242.720000
5028.94    4358.258000
5030.57    4453.796000
5032.21    4412.778000
5033.85    4526.576000
5035.48    4385.006000
5037.12    4323.399000
5038.75    4170.204000
5040.39    4209.146000
5042.03    4294.076000
5043.66    4248.026000
5045.30    4426.625000
5046.94    4789.465000
5048.57    4923.027000
5050.21    4787.764000
5051.84    4557.893000
5053.48    4290.780000
5055.12    4139.120000
5056.75    4012.407000
5058.39    3985.777000
5060.02    4098.251000
5061.66    4295.427000
5063.30    4327.539000
5064.93    4160.098000
5066.57    4189.249000
5068.21    4340.572000
5069.84    4285.266000
5071.48    4271.889000
5073.11    4377.622000
5074.75    4349.349000
5076.39    4378.739000
5078.02    4324.247000
5079.66    4061.113000
5081.30    3986.788000
5082.93    4123.168000
5084.57    4220.700000
5086.20    4248.840000
5087.84    4357.376000
5089.48    4403.051000
5091.11    4446.854000
5092.75    4222.505000
5094.39    4237.653000
5096.02    4407.726000
5097.66    4414.475000
5099.29    4511.949000
5100.93    4553.402000
5102.57    4511.650000
5104.20    4518.981000
5105.84    4475.030000
5107.48    4215.104000
5109.11    4248.799000
5110.75    4517.547000
5112.38    4515.635000
5114.02    4353.321000
5115.66    4423.940000
5117.29    4426.937000
5118.93    4475.158000
5120.56    4209.036000
5122.20    4185.092000
5123.84    4317.622000
5125.47    4253.879000
5127.11    4278.140000
5128.75    4286.329000
5130.38    4313.356000
5132.02    4372.922000
5133.65    4344.033000
5135.29    4457.253000
5136.93    4419.825000
5138.56    4314.807000
5140.20    4246.177000
5141.84    4314.645000
5143.47    4553.545000
5145.11    4429.573000
5146.74    4508.090000
5148.38    4339.869000
5150.02    4190.591000
5151.65    4316.272000
5153.29    4197.776000
5154.93    4597.068000
5156.56    4486.812000
5158.20    4325.038000
5159.83    4642.348000
5161.47    4573.893000
5163.11    4433.456000
5164.74    4360.387000
5166.38    4265.432000
5168.02    4156.412000
5169.65    4094.634000
5171.29    4085.591000
5172.92    4210.843000
5174.56    4429.344000
5176.20    4145.661000
5177.83    4231.481000
5179.47    4102.657000
5181.10    4177.566000
5182.74    4023.684000
5184.38    4075.733000
5186.01    4233.429000
5187.65    4175.433000
5189.29    4141.066000
5190.92    4298.645000
5192.56    4314.953000
5194.19    4315.311000
5195.83    4247.566000
5197.47    4487.448000
5199.10    4522.292000
5200.74    4566.648000
5202.38    4465.861000
5204.01    4408.148000
5205.65    4413.378000
5207.28    3911.024000
5208.92    3656.340000
5210.56    3897.199000
5212.19    3777.206000
5213.83    3611.822000
5215.47    3723.960000
5217.10    3855.286000
5218.74    4005.784000
5220.37    4252.065000
5222.01    4185.058000
5223.65    4052.808000
5225.28    4081.630000
5226.92    3945.896000
5228.56    3924.750000
5230.19    4115.419000
5231.83    4080.549000
5233.46    4091.609000
5235.10    4210.607000
5236.73    4208.486000
5238.37    4474.443000
5240.01    4390.636000
5241.64    4330.921000
5243.28    4405.645000
5244.92    4293.813000
5246.55    4240.476000
5248.19    4089.017000
5249.82    4019.904000
5251.46    3977.039000
5253.10    4211.244000
5254.73    4152.171000
5256.37    4132.685000
5258.01    4415.687000
5259.64    4353.446000
5261.28    4355.925000
5262.91    4348.874000
5264.55    4335.184000
5266.19    4287.407000
5267.82    4145.551000
5269.46    4158.260000
5271.10    4325.985000
5272.73    4229.128000
5274.37    4301.471000
5276.00    4316.042000
5277.64    4393.104000
5279.28    4410.902000
5280.91    4363.973000
5282.55    4413.599000
5284.19    4392.318000
5285.82    4465.539000
5287.46    4614.048000
5289.09    4396.472000
5290.73    4236.669000
5292.37    4288.067000
5294.00    4176.948000
5295.64    4296.851000
5297.27    4224.609000
5298.91    4246.933000
5300.55    4439.065000
5302.18    4609.697000
5303.82    4307.780000
5305.46    4393.525000
5307.09    4150.925000
5308.73    3998.591000
5310.36    3850.713000
5312.00    3800.519000
5313.64    4000.410000
5315.27    4231.474000
5316.91    3983.544000
5318.55    4180.223000
5320.18    4334.822000
5321.82    4436.338000
5323.45    4372.103000
5325.09    4314.528000
5326.73    4614.651000
5328.36    4465.900000
5330.00    4543.949000
5331.64    4808.442000
5333.27    4796.973000
5334.91    4637.017000
5336.54    4378.686000
5338.18    4624.940000
5339.82    4360.761000
5341.45    4358.717000
5343.09    4566.636000
5344.73    4527.536000
5346.36    4455.738000
5348.00    4559.008000
5349.63    4568.079000
5351.27    4679.054000
5352.91    4686.533000
5354.54    4651.436000
5356.18    4471.907000
5357.81    4533.781000
5359.45    4659.679000
5361.09    4615.734000
5362.72    4544.530000
5364.36    4411.821000
5366.00    4369.655000
5367.63    4533.875000
5369.27    4336.896000
5370.90    4133.658000
5372.54    4256.855000
5374.18    4256.825000
5375.81    4383.764000
5377.45    4432.665000
5379.09    4466.040000
5380.72    4492.370000
5382.36    4476.785000
5383.99    4332.127000
5385.63    4403.794000
5387.27    4416.674000
5388.90    4384.357000
5390.54    4452.840000
5392.18    4444.327000
5393.81    4413.828000
5395.45    4559.383000
5397.08    4722.206000
5398.72    4661.780000
5400.36    4794.687000
5401.99    4869.907000
5403.63    4737.180000
5405.27    4615.355000
5406.90    4596.986000
5408.54    4525.645000
5410.17    4586.888000
5411.81    4549.983000
5413.45    4356.742000
5415.08    4321.132000
5416.72    4319.197000
5418.35    4554.155000
5419.99    4693.472000
5421.63    4503.632000
5423.26    4468.566000
5424.90    4548.545000
5426.53    4417.728000
5428.17    4579.930000
5429.81    4929.326000
5431.44    4629.844000
5433.08    4520.672000
5434.72    4373.864000
5436.35    4346.546000
5437.99    4356.888000
5439.62    4318.208000
5441.26    4581.700000
5442.90    4204.048000
5444.53    4233.157000
5446.17    4366.891000
5447.81    4304.335000
5449.44    4127.628000
5451.08    4314.332000
5452.72    4368.518000
5454.35    4480.530000
5455.99    4647.786000
5457.62    4541.240000
5459.26    4641.542000
5460.90    4708.925000
5462.53    4769.156000
5464.17    4597.490000
5465.80    4440.047000
5467.44    4618.360000
5469.08    4391.156000
5470.71    4456.790000
5472.35    4501.302000
5473.98    4687.559000
5475.62    4394.692000
5477.26    4450.087000
5478.89    4296.897000
5480.53    4401.725000
5482.17    4737.569000
5483.80    4585.418000
5485.44    4610.138000
5487.07    4704.777000
5488.71    4579.944000
5490.35    4600.262000
5491.98    4499.505000
5493.62    4410.739000
5495.26    4560.901000
5496.89    4317.571000
5498.53    4226.008000
5500.16    4355.634000
5501.80    4415.818000
5503.44    4433.383000
5505.07    4434.107000
5506.71    4596.472000
5508.35    4654.788000
5509.98    4596.643000
5511.62    4564.353000
5513.25    4574.815000
5514.89    4484.566000
5516.53    4461.502000
5518.16    4376.110000
5519.80    4362.654000
5521.44    4535.145000
5523.07    4504.547000
5524.71    4537.989000
5526.34    4470.394000
5527.98    4486.556000
5529.62    4451.443000
5531.25    4323.871000
5532.89    4365.983000
5534.52    4563.305000
5536.16    4564.147000
5537.80    4515.202000
5539.43    4464.240000
5541.07    4600.430000
5542.71    4542.481000
5544.34    4473.688000
5545.98    4542.577000
5547.61    4476.324000
5549.25    4512.331000
5550.89    4388.717000
5552.52    4402.795000
5554.16    4261.650000
5555.80    4591.902000
5557.43    4519.181000
5559.07    4521.760000
5560.70    4684.465000
5562.34    4583.796000
5563.98    4691.250000
5565.61    4739.019000
5567.25    4726.429000
5568.89    4649.516000
5570.52    4568.153000
5572.16    5164.590000
5573.79    6085.925000
5575.43    5914.811000
5577.07    5088.537000
5578.70    4385.617000
5580.34    4359.942000
5581.98    4249.541000
5583.61    4284.505000
5585.25    4537.865000
5586.88    4713.953000
5588.52    4806.921000
5590.16    2000.067000
5591.79    4464.233000
5593.43    4480.569000
5595.06    4617.641000
5596.70    4610.243000
5598.34    4520.349000
5599.97    4479.687000
5601.61    4520.871000
5603.24    4527.328000
5604.88    4504.646000
5606.52    4781.120000
5608.15    4628.695000
5609.79    4496.175000
5611.43    4372.716000
5613.06    4387.700000
5614.70    4555.164000
5616.34    4600.760000
5617.97    4476.821000
5619.61    4588.482000
5621.24    4649.320000
5622.88    4640.050000
5624.52    4515.103000
5626.15    4552.800000
5627.79    4346.402000
5629.43    4170.297000
5631.06    4186.151000
5632.70    4321.839000
5634.33    4233.479000
5635.97    4176.897000
5637.60    4506.164000
5639.24    4281.850000
5640.88    4300.298000
5642.51    4398.090000
5644.15    4541.353000
5645.79    4469.911000
5647.42    4409.936000
5649.06    4370.754000
5650.69    4700.935000
5652.33    4409.136000
5653.97    4494.862000
5655.60    4806.195000
5657.24    4572.751000
5658.88    4441.841000
5660.51    4316.407000
5662.15    4187.483000
5663.78    4462.062000
5665.42    4600.949000
5667.06    4598.846000
5668.69    4421.661000
5670.33    4708.564000
5671.97    4563.842000
5673.60    4453.617000
5675.24    4470.093000
5676.88    4522.066000
5678.51    4612.839000
5680.15    4629.091000
5681.78    4444.123000
5683.42    4323.267000
5685.06    4287.124000
5686.69    4318.279000
5688.33    4581.900000
5689.96    4304.054000
5691.60    4444.685000
5693.24    4640.654000
5694.87    4463.430000
5696.51    4276.714000
5698.15    4371.235000
5699.78    4549.460000
5701.42    4465.076000
5703.05    4439.489000
5704.69    4401.551000
5706.33    4350.790000
5707.96    4403.966000
5709.60    4366.840000
5711.23    4460.005000
5712.87    4667.571000
5714.51    4619.622000
5716.14    4489.418000
5717.78    4444.452000
5719.42    4508.268000
5721.05    4399.874000
5722.69    4375.456000
5724.32    4431.998000
5725.96    4649.209000
5727.60    4652.990000
5729.23    4658.635000
5730.87    4557.030000
5732.51    4193.281000
5734.14    4545.076000
5735.78    4540.915000
5737.41    4492.493000
5739.05    4518.282000
5740.69    4524.657000
5742.32    4507.614000
5743.96    4503.444000
5745.60    4625.572000
5747.23    4638.315000
5748.87    4398.151000
5750.50    4099.027000
5752.14    4268.788000
5753.78    4338.865000
5755.41    4319.876000
5757.05    4253.144000
5758.69    4316.829000
5760.32    4373.489000
5761.96    4387.837000
5763.59    4364.837000
5765.23    4646.448000
5766.87    4501.960000
5768.50    4476.341000
5770.14    4576.926000
5771.77    4374.378000
5773.41    4528.070000
5775.05    4561.390000
5776.68    4413.953000
5778.32    4480.372000
5779.96    4493.641000
5781.59    4466.324000
5783.23    4367.534000
5784.86    4583.363000
5786.50    4490.169000
5788.14    4408.690000
5789.77    4523.817000
5791.41    4444.494000
5793.05    4478.772000
5794.68    4502.124000
5796.32    4372.182000
5797.95    4360.681000
5799.59    4357.250000
5801.23    4359.679000
5802.86    4461.167000
5804.50    4344.856000
5806.14    4382.585000
5807.77    4499.340000
5809.41    4747.945000
5811.04    4753.188000
5812.68    4693.959000
5814.32    4582.447000
5815.95    4675.253000
5817.59    4461.670000
5819.23    4453.359000
5820.86    4645.295000
5822.50    4458.124000
5824.13    4464.563000
5825.77    4317.831000
5827.40    3956.860000
5829.04    3980.286000
5830.68    4057.057000
5832.31    4187.812000
5833.95    4443.545000
5835.59    4374.429000
5837.22    4359.758000
5838.86    4377.066000
5840.49    4487.851000
5842.13    4373.562000
5843.77    4416.702000
5845.40    4500.418000
5847.04    4644.250000
5848.68    4500.362000
5850.31    4456.651000
5851.95    4446.556000
5853.59    4531.270000
5855.22    4590.769000
5856.86    4577.725000
5858.49    4534.698000
5860.13    4584.214000
5861.77    4598.183000
5863.40    4512.026000
5865.04    4364.730000
5866.67    4600.740000
5868.31    4600.773000
5869.95    4610.055000
5871.58    4629.995000
5873.22    4667.869000
5874.85    4592.567000
5876.49    4588.009000
5878.13    4694.803000
5879.76    4323.603000
5881.40    4359.728000
5883.04    4427.131000
5884.67    4530.814000
5886.31    4554.021000
5887.94    4577.563000
5889.58    4577.313000
5891.22    4534.611000
5892.85    4496.376000
5894.49    4418.003000
5896.13    4330.817000
5897.76    4249.655000
5899.40    4158.815000
5901.03    4345.906000
5902.67    4499.948000
5904.31    4080.038000
5905.94    4272.255000
5907.58    4325.595000
5909.22    4313.368000
5910.85    4225.870000
5912.49    4415.477000
5914.12    4437.240000
5915.76    4369.736000
5917.40    4503.452000
5919.03    4269.645000
5920.67    4214.932000
5922.31    4287.433000
5923.94    4660.526000
5925.58    4566.261000
5927.21    4525.204000
5928.85    4544.305000
5930.49    4183.591000
5932.12    4142.700000
5933.76    4036.800000
5935.40    3804.160000
5937.03    3647.440000
5938.67    3649.650000
5940.30    3641.282000
5941.94    3588.497000
5943.58    3667.059000
5945.21    3772.814000
5946.85    3896.713000
5948.48    4090.668000
5950.12    4245.544000
5951.76    4276.031000
5953.39    4270.574000
5955.03    4278.549000
5956.67    4376.708000
5958.30    4302.477000
5959.94    4157.407000
5961.57    3990.501000
5963.21    4198.352000
5964.85    4257.783000
5966.48    4240.878000
5968.12    4246.529000
5969.76    4322.206000
5971.39    4323.611000
5973.03    4264.971000
5974.66    4390.009000
5976.30    4341.667000
5977.94    4246.804000
5979.57    4100.042000
5981.21    4165.485000
5982.85    4210.087000
5984.48    4173.561000
5986.12    4023.820000
5987.75    4291.075000
5989.39    4419.737000
5991.03    4496.689000
5992.66    4511.226000
5994.30    4494.648000
5995.94    4473.066000
5997.57    4448.738000
5999.21    4431.618000
6000.84    4313.536000
6002.48    4195.480000
6004.12    4096.517000
6005.75    4123.297000
6007.39    4283.311000
6009.02    4282.165000
6010.66    4251.569000
6012.30    4402.212000
6013.93    4499.040000
6015.57    4477.527000
6017.20    4396.783000
6018.84    4339.957000
6020.48    4249.404000
6022.11    4218.024000
6023.75    4214.673000
6025.39    4252.976000
6027.02    4257.000000
6028.66    4174.734000
6030.30    4011.358000
6031.93    4323.082000
6033.57    4319.519000
6035.20    4334.126000
6036.84    4388.924000
6038.48    4440.953000
6040.11    4437.080000
6041.75    4398.200000
6043.39    4311.076000
6045.02    4447.207000
6046.66    4365.773000
6048.29    4291.098000
6049.93    4310.725000
6051.56    4272.185000
6053.20    4214.660000
6054.84    4141.406000
6056.48    4053.060000
6058.11    4146.415000
6059.75    4200.160000
6061.38    4221.500000
6063.02    4135.237000
6064.65    4209.112000
6066.29    4207.018000
6067.93    4162.125000
6069.56    4055.791000
6071.20    4208.165000
6072.84    4351.474000
6074.47    4477.678000
6076.11    4340.520000
6077.74    4408.040000
6079.38    4464.796000
6081.02    4515.904000
6082.65    4401.969000
6084.29    4361.455000
6085.93    4307.230000
6087.56    4234.193000
6089.20    4363.229000
6090.84    4359.275000
6092.47    4339.109000
6094.11    4314.417000
6095.74    4480.052000
6097.38    4379.739000
6099.02    4305.190000
6100.65    4364.027000
6102.29    4325.604000
6103.92    4214.188000
6105.56    4141.687000
6107.20    4279.247000
6108.83    4232.189000
6110.47    4226.897000
6112.10    4248.516000
6113.74    4381.558000
6115.38    4398.283000
6117.01    4411.550000
6118.65    4409.537000
6120.29    4329.383000
6121.92    4404.064000
6123.56    4430.332000
6125.19    4414.067000
6126.83    4225.255000
6128.47    4210.475000
6130.10    4220.054000
6131.74    4240.834000
6133.38    4235.548000
6135.01    4262.288000
6136.65    4252.390000
6138.28    4196.671000
6139.92    4314.340000
6141.56    4289.870000
6143.19    4237.036000
6144.83    4156.343000
6146.47    4071.815000
6148.10    4121.226000
6149.74    4188.619000
6151.37    4291.563000
6153.01    4126.841000
6154.65    4135.830000
6156.28    4191.444000
6157.92    4349.872000
6159.56    4296.164000
6161.19    4228.907000
6162.83    4176.780000
6164.46    4232.047000
6166.10    4186.674000
6167.74    4167.410000
6169.37    4165.454000
6171.01    4267.533000
6172.65    4144.769000
6174.28    4129.172000
6175.92    4155.495000
6177.55    4169.597000
6179.19    4070.355000
6180.83    4083.604000
6182.46    4163.615000
6184.10    4091.385000
6185.73    4076.842000
6187.37    4088.655000
6189.01    4123.672000
6190.64    4100.058000
6192.28    4098.102000
6193.92    4100.269000
6195.55    4121.757000
6197.19    4226.496000
6198.82    4268.199000
6200.46    4258.793000
6202.10    4167.867000
6203.73    4161.390000
6205.37    4086.597000
6207.01    3995.960000
6208.64    3902.962000
6210.28    3919.577000
6211.91    3964.398000
6213.55    3984.652000
6215.19    3894.577000
6216.82    3811.551000
6218.46    3745.918000
6220.10    3695.511000
6221.73    3745.460000
6223.37    3954.807000
6225.00    4007.312000
6226.64    3983.887000
6228.28    3915.826000
6229.91    3939.839000
6231.55    3975.383000
6233.19    4014.857000
6234.82    4068.415000
6236.46    3916.142000
6238.09    3846.409000
6239.73    3841.798000
6241.36    4071.737000
6243.00    4020.680000
6244.64    3973.143000
6246.27    3941.017000
6247.91    3988.489000
6249.55    3976.876000
6251.18    3933.196000
6252.82    3844.404000
6254.45    3840.869000
6256.09    3899.025000
6257.73    3962.461000
6259.36    4052.869000
6261.00    4071.465000
6262.64    3965.204000
6264.27    3849.184000
6265.91    3788.010000
6267.55    3736.061000
6269.18    3743.845000
6270.82    3781.599000
6272.45    3920.925000
6274.09    3835.647000
6275.73    3744.697000
6277.36    3656.384000
6279.00    3704.109000
6280.64    3734.302000
6282.27    3764.354000
6283.91    3786.323000
6285.54    3716.288000
6287.18    3832.577000
6288.81    3931.078000
6290.45    4007.506000
6292.09    3904.604000
6293.72    3989.895000
6295.36    4098.056000
6297.00    4239.443000
6298.63    3966.917000
6300.27    3996.167000
6301.90    4093.489000
6303.54    4305.395000
6305.18    4185.566000
6306.81    3988.679000
6308.45    3824.067000
6310.09    3756.294000
6311.72    3760.217000
6313.36    3822.278000
6314.99    3882.522000
6316.63    3923.502000
6318.27    3962.953000
6319.90    3965.585000
6321.54    3961.837000
6323.18    3989.858000
6324.81    3971.786000
6326.45    3940.108000
6328.08    3897.011000
6329.72    3857.807000
6331.36    3709.423000
6332.99    3703.911000
6334.63    3764.342000
6336.27    3814.968000
6337.90    3809.236000
6339.54    3827.927000
6341.17    3853.659000
6342.81    3934.361000
6344.45    3946.178000
6346.08    3954.562000
6347.72    3959.776000
6349.35    4058.097000
6350.99    4192.475000
6352.63    4244.294000
6354.26    4190.207000
6355.90    4128.529000
6357.54    4111.054000
6359.17    4090.332000
6360.81    4076.146000
6362.44    4116.666000
6364.08    4021.754000
6365.72    3907.203000
6367.35    3790.837000
6368.99    3709.582000
6370.63    3826.776000
6372.26    3937.092000
6373.90    3848.803000
6375.53    3840.737000
6377.17    3817.028000
6378.81    3807.117000
6380.44    3969.923000
6382.08    4112.701000
6383.72    4130.584000
6385.35    4083.640000
6386.99    3983.369000
6388.62    3959.670000
6390.26    3926.161000
6391.90    3875.966000
6393.53    3943.327000
6395.17    3969.846000
6396.81    3951.152000
6398.44    3890.524000
6400.08    3993.674000
6401.71    4055.688000
6403.35    4055.816000
6404.99    3985.639000
6406.62    3922.371000
6408.26    3788.199000
6409.90    3725.148000
6411.53    3816.947000
6413.17    3917.219000
6414.80    3849.957000
6416.44    3794.972000
6418.08    3831.385000
6419.71    3792.095000
6421.35    3826.985000
6422.98    3865.799000
6424.62    3881.898000
6426.26    3982.218000
6427.89    4108.378000
6429.53    4212.052000
6431.16    4158.853000
6432.80    4050.011000
6434.44    4033.032000
6436.07    4037.682000
6437.71    3935.355000
6439.35    3965.488000
6440.98    3900.021000
6442.62    3775.401000
6444.26    3908.490000
6445.89    3952.027000
6447.53    3967.490000
6449.16    3956.118000
6450.80    3920.998000
6452.44    3936.359000
6454.07    3911.479000
6455.71    3837.616000
6457.35    3827.260000
6458.98    3845.637000
6460.62    3818.667000
6462.25    3728.175000
6463.89    3827.468000
6465.52    3871.746000
6467.16    3868.770000
6468.80    3786.530000
6470.44    3559.234000
6472.07    3688.842000
6473.71    3878.306000
6475.34    4096.453000
6476.98    3923.858000
6478.61    3896.806000
6480.25    3884.901000
6481.89    3791.496000
6483.52    3708.511000
6485.16    3700.852000
6486.80    3737.221000
6488.43    3950.070000
6490.07    3913.075000
6491.70    3788.701000
6493.34    3627.684000
6494.98    3914.916000
6496.61    3964.354000
6498.25    3907.417000
6499.89    3762.443000
6501.52    3888.712000
6503.16    3797.542000
6504.80    3746.024000
6506.43    3732.137000
6508.07    3888.878000
6509.70    3961.428000
6511.34    3927.067000
6512.98    3746.299000
6514.61    3752.847000
6516.25    3710.435000
6517.88    3706.175000
6519.52    3814.530000
6521.16    3903.269000
6522.79    3855.561000
6524.43    3765.915000
6526.06    3610.548000
6527.70    3748.632000
6529.34    3758.393000
6530.97    3750.588000
6532.61    3819.595000
6534.25    3693.278000
6535.88    3691.922000
6537.52    3723.836000
6539.15    3725.692000
6540.79    3722.256000
6542.43    3600.505000
6544.06    3418.847000
6545.70    3394.859000
6547.34    3457.948000
6548.97    3503.640000
6550.61    3535.018000
6552.24    3624.152000
6553.88    3589.087000
6555.52    3616.390000
6557.15    3706.631000
6558.79    3695.718000
6560.43    3749.152000
6562.06    3783.522000
6563.70    3809.823000
6565.33    3822.519000
6566.97    3807.264000
6568.61    3770.842000
6570.24    3712.200000
6571.88    3745.663000
6573.52    3699.020000
6575.15    3653.037000
6576.79    3644.083000
6578.42    3712.949000
6580.06    3775.114000
6581.70    3818.759000
6583.33    3814.026000
6584.97    3757.158000
6586.60    3695.001000
6588.24    3660.050000
6589.88    3841.887000
6591.51    3951.425000
6593.15    3890.945000
6594.79    3779.918000
6596.42    4050.014000
6598.06    4387.629000
6599.69    4737.847000
6601.33    5088.876000
6602.97    4899.847000
6604.60    4607.500000
6606.24    4341.554000
6607.88    4081.342000
6609.51    4138.589000
6611.15    5447.000000
6612.78    7550.703000
6614.42    10849.980000
6616.06    13155.010000
6617.69    12239.290000
6619.33    10481.660000
6620.97    7382.334000
6622.60    5116.156000
6624.24    4321.970000
6625.87    3857.992000
6627.51    3808.849000
6629.15    3624.729000
6630.78    4017.348000
6632.42    4690.048000
6634.06    6089.487000
6635.69    7482.341000
6637.33    7815.726000
6638.96    7653.007000
6640.60    6287.862000
6642.24    4941.102000
6643.87    4340.812000
6645.51    3995.718000
6647.15    3657.018000
6648.78    3611.972000
6650.42    3638.341000
6652.05    3700.047000
6653.69    3771.561000
6655.32    3751.995000
6656.96    3712.123000
6658.60    3645.780000
6660.23    3854.583000
6661.87    3835.842000
6663.51    3785.756000
6665.14    3698.101000
6666.78    3536.042000
6668.41    3757.084000
6670.05    3906.432000
6671.69    3950.021000
6673.32    3568.123000
6674.96    3660.935000
6676.60    3762.278000
6678.23    3806.577000
6679.87    3609.635000
6681.51    3705.272000
6683.14    3782.810000
6684.78    3674.532000
6686.41    3722.466000
6688.05    3801.607000
6689.69    3872.918000
6691.32    3885.884000
6692.96    3703.782000
6694.60    3658.222000
6696.23    3653.404000
6697.87    3673.957000
6699.50    3669.439000
6701.14    3677.474000
6702.77    3684.925000
6704.41    3667.391000
6706.05    3586.509000
6707.68    3525.848000
6709.32    3469.113000
6710.96    3522.459000
6712.59    3684.310000
6714.23    3714.960000
6715.86    3617.457000
6717.50    3527.564000
6719.14    3590.376000
6720.77    3630.614000
6722.41    3653.029000
6724.05    3745.077000
6725.68    3700.166000
6727.32    3661.507000
6728.95    3661.721000
6730.59    3599.835000
6732.23    3549.478000
6733.86    3567.319000
6735.50    3802.794000
6737.14    3701.659000
6738.77    3665.609000
6740.41    3670.955000
6742.04    3816.248000
6743.68    3725.991000
6745.32    3696.496000
6746.95    3674.709000
6748.59    3638.120000
6750.23    3605.844000
6751.86    3587.200000
6753.50    3572.137000
6755.13    3598.273000
6756.77    3591.484000
6758.41    3581.261000
6760.04    3563.812000
6761.68    3658.987000
6763.31    3539.782000
6764.95    3613.703000
6766.59    3873.669000
6768.22    4436.411000
6769.86    4690.054000
6771.50    4831.267000
6773.13    4859.476000
6774.77    4409.289000
6776.40    3987.955000
6778.04    3700.787000
6779.68    3642.667000
6781.31    3775.799000
6782.95    4179.150000
6784.59    4557.180000
6786.22    4837.990000
6787.86    4498.448000
6789.49    4169.269000
6791.13    3868.105000
6792.77    3674.733000
6794.40    3553.386000
6796.04    3440.909000
6797.68    3365.218000
6799.31    3552.016000
6800.95    3326.060000
6802.58    3345.890000
6804.22    3444.977000
6805.86    3374.653000
6807.49    3429.014000
6809.13    3452.144000
6810.77    3462.129000
6812.40    3709.099000
6814.04    3547.956000
6815.67    3442.476000
6817.31    3372.583000
6818.95    3542.761000
6820.58    3517.312000
6822.22    3450.307000
6823.85    3330.810000
6825.49    3423.793000
6827.13    3438.322000
6828.76    3460.499000
6830.40    3511.812000
6832.04    3573.966000
6833.67    3537.609000
6835.31    3512.966000
6836.94    3551.540000
6838.58    3486.112000
6840.22    3512.277000
6841.85    3492.205000
6843.49    3268.497000
6845.12    3384.740000
6846.76    3460.648000
6848.40    3494.033000
6850.03    3391.848000
6851.67    3523.792000
6853.31    3559.489000
6854.94    3543.198000
6856.58    3410.059000
6858.22    3440.686000
6859.85    3406.455000
6861.49    3332.662000
6863.12    3305.084000
6864.76    3019.618000
6866.40    2809.021000
6868.03    2635.485000
6869.67    2436.962000
6871.31    2402.700000
6872.94    2443.926000
6874.58    2571.251000
6876.21    2800.708000
6877.85    2936.114000
6879.48    3049.865000
6881.12    3152.303000
6882.76    3095.749000
6884.40    3030.828000
6886.03    2959.324000
6887.67    2878.767000
6889.30    2897.142000
6890.94    2931.366000
6892.57    2961.209000
6894.21    2983.064000
6895.85    2937.658000
6897.48    2935.615000
6899.12    2929.473000
6900.76    2888.893000
6902.39    3038.232000
6904.03    3072.280000
6905.66    3068.259000
6907.30    3080.892000
6908.94    3097.801000
6910.57    3131.845000
6912.21    3159.558000
6913.85    3047.113000
6915.48    3073.588000
6917.12    3084.759000
6918.76    3080.430000
6920.39    3029.685000
6922.03    3094.978000
6923.66    3149.675000
6925.30    3201.601000
6926.94    3244.161000
6928.57    3219.442000
6930.21    3180.324000
6931.84    3126.635000
6933.48    3116.520000
6935.12    3071.491000
6936.75    3053.215000
6938.39    3101.568000
6940.02    3080.570000
6941.66    3139.270000
6943.30    3193.830000
6944.93    3224.621000
6946.57    3220.390000
6948.21    3218.422000
6949.84    3194.045000
6951.48    3102.875000
6953.11    3139.955000
6954.75    3176.159000
6956.39    3204.983000
6958.02    3205.578000
6959.66    3237.069000
6961.30    3247.366000
6962.93    3247.274000
6964.57    3287.661000
6966.20    3352.057000
6967.84    3346.638000
6969.48    3289.795000
6971.11    3125.807000
6972.75    3151.622000
6974.39    3214.570000
6976.02    3317.950000
6977.66    3175.695000
6979.29    3097.882000
6980.93    3129.213000
6982.57    3307.824000
6984.20    3295.307000
6985.84    3134.895000
6987.48    3037.283000
6989.11    3065.852000
6990.75    3100.948000
6992.38    3181.743000
6994.02    3253.893000
6995.66    3309.672000
6997.29    3155.547000
6998.93    3181.640000
7000.56    3219.845000
7002.20    3215.073000
7003.84    3081.148000
7005.47    3030.369000
7007.11    3006.451000
7008.75    3032.132000
7010.38    3145.231000
7012.02    3117.223000
7013.65    3044.656000
7015.29    3116.070000
7016.93    3220.721000
7018.56    3197.685000
7020.20    3104.516000
7021.84    3114.831000
7023.47    3159.547000
7025.11    3159.463000
7026.74    3119.334000
7028.38    3118.811000
7030.02    3170.558000
7031.65    3145.602000
7033.29    3027.450000
7034.93    2845.733000
7036.56    2945.631000
7038.20    3012.908000
7039.83    3028.580000
7041.47    3166.687000
7043.11    3243.193000
7044.74    3247.062000
7046.38    3107.578000
7048.02    3138.828000
7049.65    3153.301000
7051.29    3160.072000
7052.92    3173.642000
7054.56    3123.640000
7056.20    3104.461000
7057.83    3089.674000
7059.47    3077.137000
7061.10    3021.343000
7062.74    3052.765000
7064.38    3093.215000
7066.01    2998.032000
7067.65    3022.635000
7069.28    3077.960000
7070.92    3132.072000
7072.56    2956.760000
7074.19    2999.281000
7075.83    3058.115000
7077.47    3126.085000
7079.10    3137.988000
7080.74    3114.667000
7082.38    3077.345000
7084.01    3019.842000
7085.65    2996.799000
7087.28    2998.905000
7088.92    3017.058000
7090.56    3069.778000
7092.19    3018.620000
7093.83    3020.231000
7095.47    3047.641000
7097.10    3132.858000
7098.74    3090.983000
7100.37    3072.873000
7102.01    3062.604000
7103.65    3086.399000
7105.28    3020.451000
7106.92    3032.836000
7108.56    3040.796000
7110.19    2971.052000
7111.83    2842.843000
7113.46    2857.812000
7115.10    2899.899000
7116.73    2852.111000
7118.37    2762.370000
7120.01    2843.727000
7121.64    2987.346000
7123.28    2954.549000
7124.92    2818.624000
7126.55    2789.171000
7128.19    2823.280000
7129.82    2921.037000
7131.46    2864.213000
7133.10    2864.411000
7134.73    2914.715000
7136.37    3001.898000
7138.01    2907.132000
7139.64    2891.768000
7141.28    2992.128000
7142.91    2693.742000
7144.55    2735.866000
7146.19    2766.103000
7147.82    2749.811000
7149.46    2660.257000
7151.10    2691.110000
7152.73    2715.480000
7154.37    2705.323000
7156.00    2627.812000
7157.64    2646.290000
7159.28    2687.548000
7160.91    2760.874000
7162.55    2727.792000
7164.19    2695.932000
7165.82    2639.010000
7167.46    2456.786000
7169.09    2451.254000
7170.73    2425.203000
7172.37    2390.460000
7174.00    2388.503000
7175.64    2261.338000
7177.27    2310.669000
7178.91    2448.509000
7180.55    2310.600000
7182.18    2221.419000
7183.82    2183.420000
7185.46    2176.844000
7187.09    2093.191000
7188.73    2111.547000
7190.36    2107.639000
7192.00    2075.522000
7193.64    2264.513000
7195.27    2299.342000
7196.91    2285.230000
7198.55    2204.622000
7200.18    2141.541000
7201.82    2088.380000
7203.45    2084.191000
7205.09    2207.508000
7206.73    2286.296000
7208.36    2285.160000
7210.00    2320.410000
7211.64    2538.675000
7213.27    2630.271000
7214.91    2620.379000
7216.54    2569.564000
7218.18    2455.298000
7219.82    2576.871000
7221.45    2545.818000
7223.09    2464.657000
7224.73    2459.668000
7226.36    2519.773000
7228.00    2598.611000
7229.63    2657.253000
7231.27    2204.706000
7232.91    2142.242000
7234.54    2141.774000
7236.18    2183.138000
7237.81    2497.074000
7239.45    2416.730000
7241.09    2361.097000
7242.72    2326.645000
7244.36    2514.660000
7246.00    2415.720000
7247.63    2353.065000
7249.27    2359.368000
7250.90    2277.473000
7252.54    2182.303000
7254.18    2136.338000
7255.81    2206.716000
7257.45    2245.835000
7259.09    2251.350000
7260.72    2246.017000
7262.36    2228.351000
7263.99    2313.617000
7265.63    2270.496000
7267.27    2228.747000
7268.90    2340.115000
7270.54    2326.871000
7272.18    2334.864000
7273.81    2332.014000
7275.45    2215.676000
7277.08    2211.098000
7278.72    2278.802000
7280.36    2368.900000
7281.99    2299.376000
7283.63    2467.336000
7285.27    2479.086000
7286.90    2382.503000
7288.54    2383.115000
7290.17    2315.955000
7291.81    2315.712000
7293.44    2379.838000
7295.08    2363.640000
7296.72    2387.481000
7298.35    2392.996000
7299.99    2379.750000
7301.63    2239.095000
7303.26    2243.161000
7304.90    2285.990000
7306.53    2403.307000
7308.17    2262.106000
7309.81    2307.513000
7311.44    2349.469000
7313.08    2328.187000
7314.72    2462.731000
7316.35    2551.592000
7317.99    2601.793000
7319.62    2545.045000
7321.26    2388.807000
7322.90    2387.587000
7324.53    2430.592000
7326.17    2482.044000
7327.81    2498.574000
7329.44    2474.199000
7331.08    2430.438000
7332.72    2405.875000
7334.35    2344.755000
7335.99    2363.742000
7337.62    2433.917000
7339.26    2726.672000
7340.90    2625.213000
7342.53    2529.547000
7344.17    2433.269000
7345.80    2356.839000
7347.44    2390.649000
7349.08    2427.739000
7350.71    2478.571000
7352.35    2511.929000
7353.98    2497.819000
7355.62    2485.709000
7357.26    2492.470000
7358.89    2334.283000
7360.53    2284.442000
7362.17    2296.980000
7363.80    2446.450000
7365.44    2538.210000
7367.07    2480.009000
7368.71    2418.173000
7370.35    2448.035000
7371.98    2460.304000
7373.62    2469.791000
7375.26    2471.875000
7376.89    2449.754000
7378.53    2501.847000
7380.16    2502.208000
7381.80    2473.948000
7383.44    2389.327000
7385.07    2488.461000
7386.71    2509.649000
7388.35    2489.524000
7389.98    2598.176000
7391.62    2584.488000
7393.25    2558.443000
7394.89    2515.183000
7396.53    2437.203000
7398.16    2463.410000
7399.80    2489.809000
7401.44    2517.639000
7403.07    2495.197000
7404.71    2459.289000
7406.34    2458.318000
7407.98    2525.909000
7409.62    2314.059000
7411.25    2366.741000
7412.89    2428.384000
7414.52    2470.653000
7416.16    2359.282000
7417.80    2317.479000
7419.43    2313.511000
7421.07    2411.141000
7422.71    2379.949000
7424.34    2340.099000
7425.98    2298.808000
7427.61    2272.696000
7429.25    2385.745000
7430.89    2448.623000
7432.52    2483.615000
7434.16    2440.028000
7435.80    2417.682000
7437.43    2421.972000
7439.07    2425.807000
7440.70    2321.228000
7442.34    2259.765000
7443.98    2328.436000
7445.61    2482.538000
7447.25    2378.818000
7448.89    2413.323000
7450.52    2352.876000
7452.16    2191.837000
7453.79    2313.042000
7455.43    2400.727000
7457.07    2419.185000
7458.70    2350.617000
7460.34    2234.230000
7461.98    2273.655000
7463.61    2305.447000
7465.25    2307.897000
7466.88    2360.418000
7468.52    2311.996000
7470.16    2253.800000
7471.79    2211.270000
7473.43    2282.301000
7475.06    2327.431000
7476.70    2331.285000
7478.34    2187.853000
7479.97    2196.177000
7481.61    2152.058000
7483.24    2110.876000
7484.88    2220.050000
7486.52    2180.720000
7488.15    2200.225000
7489.79    2247.292000
7491.43    2365.649000
7493.06    2278.594000
7494.70    2303.199000
7496.34    2387.618000
7497.97    2228.367000
7499.61    2234.000000
7501.24    2243.957000
7502.88    2259.280000
7504.52    2197.294000
7506.15    2189.248000
7507.79    2218.870000
7509.43    2309.748000
7511.06    2341.734000
7512.70    2317.701000
7514.33    2318.369000
7515.97    2376.597000
7517.60    2361.124000
7519.24    2289.691000
7520.88    2279.577000
7522.52    2458.346000
7524.15    2364.272000
7525.79    2325.446000
7527.42    2297.495000
7529.06    2280.481000
7530.69    2236.139000
7532.33    2235.637000
7533.97    2226.972000
7535.60    2111.751000
7537.24    2178.743000
7538.88    2204.514000
7540.51    2198.151000
7542.15    2080.363000
7543.78    2110.141000
7545.42    2197.672000
7547.06    2311.844000
7548.69    2254.318000
7550.33    2209.764000
7551.97    2204.279000
7553.60    2223.957000
7555.24    2045.511000
7556.88    2093.157000
7558.51    2125.548000
7560.15    2143.422000
7561.78    2105.345000
7563.42    2035.241000
7565.06    2001.409000
7566.69    2032.413000
7568.33    2117.665000
7569.96    2171.084000
7571.60    2203.869000
7573.24    2206.620000
7574.87    2153.895000
7576.51    2084.319000
7578.15    2035.805000
