#Wavelength     Flux
#[Angstrom]   [Counts]
3913.05     0.000000
3914.68     0.000000
3916.32     0.000000
3917.95     0.000000
3919.59     0.000000
3921.23     0.000000
3922.86     0.000000
3924.50     0.000000
3926.14     0.000000
3927.77     0.000000
3929.41     0.000000
3931.04     0.000000
3932.68     0.000000
3934.32     0.000000
3935.95    2912.394000
3937.59    1630.040000
3939.22    1752.281000
3940.86    1514.680000
3942.50    1596.197000
3944.13    1807.718000
3945.77    1975.528000
3947.41    1615.083000
3949.04    1409.534000
3950.68    1747.235000
3952.31    1653.180000
3953.95    1639.801000
3955.59    1618.288000
3957.22    1707.286000
3958.86    1905.429000
3960.49    2054.919000
3962.13    2143.840000
3963.77    2270.460000
3965.40    2013.691000
3967.04    2188.905000
3968.68    2315.194000
3970.31    2198.379000
3971.95    2441.946000
3973.59    2427.987000
3975.22    2287.811000
3976.86    2268.434000
3978.49    2468.975000
3980.13    2728.995000
3981.77    2634.865000
3983.40    2536.895000
3985.04    2575.976000
3986.67    2610.640000
3988.31    2218.353000
3989.95    2226.957000
3991.58    2216.169000
3993.22    2126.524000
3994.86    2009.497000
3996.49    1912.980000
3998.13    1383.898000
3999.76    1333.934000
4001.40    1469.433000
4003.04    1058.856000
4004.67    998.033500
4006.31    1081.118000
4007.95    1090.335000
4009.58    1235.793000
4011.22    1384.006000
4012.85    1818.213000
4014.49    1975.984000
4016.13    2067.471000
4017.76    2239.742000
4019.40    2232.231000
4021.03    2234.193000
4022.67    2280.450000
4024.31    2461.024000
4025.94    2349.863000
4027.58    2393.842000
4029.22    2369.265000
4030.85    2042.118000
4032.49    2034.570000
4034.12    1620.510000
4035.76    1411.453000
4037.40    1410.239000
4039.03    1379.996000
4040.67    1365.510000
4042.30    1245.301000
4043.94    1258.743000
4045.58    1757.880000
4047.21    2189.159000
4048.85    2036.469000
4050.49    2325.379000
4052.12    2686.141000
4053.76    2561.213000
4055.39    2902.330000
4057.03    2830.643000
4058.67    2981.720000
4060.30    2969.400000
4061.94    2790.951000
4063.58    3080.777000
4065.21    2736.250000
4066.85    3125.331000
4068.49    3109.963000
4070.12    3209.336000
4071.76    3166.544000
4073.39    3395.780000
4075.03    3300.713000
4076.67    3303.196000
4078.30    3138.191000
4079.94    3187.363000
4081.57    2933.270000
4083.21    3153.121000
4084.85    3266.089000
4086.48    3538.311000
4088.12    3249.479000
4089.76    3443.821000
4091.39    3322.118000
4093.03    3196.884000
4094.66    3301.675000
4096.30    3603.887000
4097.94    3400.138000
4099.57    3333.028000
4101.21    3313.900000
4102.85    3406.112000
4104.48    3080.805000
4106.12    2982.577000
4107.75    3232.833000
4109.39    3242.404000
4111.03    3166.697000
4112.66    3095.971000
4114.30    3110.527000
4115.94    3080.294000
4117.57    3260.133000
4119.21    3077.220000
4120.84    3193.171000
4122.48    3121.353000
4124.12    3020.303000
4125.75    3303.524000
4127.39    3362.598000
4129.02    3175.614000
4130.66    3419.797000
4132.30    3185.441000
4133.93    3229.393000
4135.57    2682.357000
4137.20    2679.359000
4138.84    2684.834000
4140.48    2664.285000
4142.11    3092.532000
4143.75    3079.787000
4145.39    3074.561000
4147.02    3041.981000
4148.66    3163.035000
4150.30    2969.926000
4151.93    3400.934000
4153.57    3183.952000
4155.20    3062.914000
4156.84    3596.677000
4158.48    3152.814000
4160.11    3676.894000
4161.75    3580.255000
4163.39    3435.795000
4165.02    3393.113000
4166.66    3441.406000
4168.29    2880.988000
4169.93    3327.272000
4171.56    2970.234000
4173.20    3087.474000
4174.84    2955.532000
4176.47    2720.890000
4178.11    3167.251000
4179.75    3263.242000
4181.38    3112.592000
4183.02    3381.204000
4184.65    3325.137000
4186.29    2750.848000
4187.93    3416.305000
4189.56    3157.564000
4191.20    3179.334000
4192.84    3129.664000
4194.47    3314.992000
4196.11    3142.423000
4197.74    3015.683000
4199.38    3264.220000
4201.02    3242.354000
4202.65    2821.640000
4204.29    3355.908000
4205.93    3014.502000
4207.56    3181.038000
4209.20    3213.504000
4210.83    3365.661000
4212.47    3109.980000
4214.11    3074.656000
4215.74    3405.722000
4217.38    3166.622000
4219.02    2966.102000
4220.65    3054.249000
4222.29    3078.054000
4223.92    2601.927000
4225.56    3014.074000
4227.20    2756.156000
4228.83    2935.638000
4230.47    3073.591000
4232.10    3247.982000
4233.74    2995.160000
4235.38    3023.925000
4237.01    2983.911000
4238.65    2992.135000
4240.29    3397.775000
4241.92    3110.416000
4243.56    2832.672000
4245.19    3071.167000
4246.83    3025.415000
4248.47    3047.669000
4250.10    2782.200000
4251.74    2936.451000
4253.38    2992.464000
4255.01    3061.211000
4256.65    2923.272000
4258.28    3005.774000
4259.92    3194.579000
4261.56    3132.686000
4263.19    3377.099000
4264.83    3120.415000
4266.47    3049.643000
4268.10    3081.479000
4269.74    3109.632000
4271.37    3151.977000
4273.01    3076.765000
4274.65    3221.707000
4276.28    3221.628000
4277.92    3154.689000
4279.56    3122.504000
4281.19    3331.697000
4282.83    3279.935000
4284.46    3386.330000
4286.10    3373.679000
4287.74    3506.887000
4289.37    3426.229000
4291.01    3429.136000
4292.65    3156.292000
4294.28    3370.669000
4295.92    3201.823000
4297.55    3114.893000
4299.19    3351.249000
4300.83    3261.733000
4302.46    2930.755000
4304.10    2833.629000
4305.73    3170.484000
4307.37    3143.550000
4309.01    3199.126000
4310.64    3290.054000
4312.28    3229.406000
4313.92    3489.652000
4315.55    3504.383000
4317.19    3441.744000
4318.82    3427.871000
4320.46    3401.967000
4322.10    3395.651000
4323.73    3609.553000
4325.37    3437.523000
4327.01    3083.043000
4328.64    3215.292000
4330.28    3289.318000
4331.91    3259.346000
4333.55    3119.047000
4335.19    3009.485000
4336.82    3186.532000
4338.46    3240.176000
4340.10    3375.530000
4341.73    3339.229000
4343.37    3452.971000
4345.00    3635.146000
4346.64    3377.272000
4348.28    3097.980000
4349.91    3053.468000
4351.55    2972.140000
4353.19    3324.345000
4354.82    3440.783000
4356.46    3493.957000
4358.09    3600.987000
4359.73    3481.749000
4361.36    3303.210000
4363.00    3330.825000
4364.64    3337.130000
4366.27    3276.780000
4367.91    3241.402000
4369.55    3293.077000
4371.18    3068.729000
4372.82    2999.584000
4374.45    2834.125000
4376.09    2846.733000
4377.73    2669.738000
4379.36    2458.379000
4381.00    2460.530000
4382.64    2518.596000
4384.27    2447.186000
4385.91    2287.328000
4387.55    2360.164000
4389.18    2739.821000
4390.82    2980.178000
4392.45    3089.605000
4394.09    3740.743000
4395.73    3671.801000
4397.36    3628.299000
4399.00    3579.782000
4400.63    3387.540000
4402.27    3449.238000
4403.91    3281.957000
4405.54    3482.916000
4407.18    3919.271000
4408.81    3962.107000
4410.45    3798.692000
4412.09    3696.597000
4413.72    3576.451000
4415.36    3815.556000
4417.00    3614.755000
4418.63    3224.989000
4420.27    3546.456000
4421.90    3882.748000
4423.54    3805.834000
4425.18    3782.051000
4426.81    3889.218000
4428.45    3987.760000
4430.09    3680.193000
4431.72    3817.791000
4433.36    3795.951000
4434.99    3536.672000
4436.63    3960.842000
4438.27    3954.283000
4439.90    4098.957000
4441.54    4094.672000
4443.18    4059.302000
4444.81    4051.622000
4446.45    3836.453000
4448.08    4036.784000
4449.72    4048.617000
4451.36    3844.058000
4452.99    3856.918000
4454.63    3636.604000
4456.27    3644.414000
4457.90    3800.381000
4459.54    3795.341000
4461.17    3563.266000
4462.81    3210.664000
4464.45    3448.868000
4466.08    3404.695000
4467.72    3285.261000
4469.35    3533.115000
4470.99    3815.113000
4472.63    3761.698000
4474.26    3660.287000
4475.90    4060.023000
4477.54    4091.376000
4479.17    3878.658000
4480.81    4073.342000
4482.44    3641.408000
4484.08    3730.260000
4485.72    3547.279000
4487.35    4006.020000
4488.99    4054.331000
4490.62    3985.285000
4492.26    4219.426000
4493.90    4129.122000
4495.53    4251.623000
4497.17    4398.628000
4498.81    4367.494000
4500.44    4233.470000
4502.08    4163.525000
4503.72    4399.614000
4505.35    4139.118000
4506.99    4271.736000
4508.62    4216.758000
4510.26    4078.600000
4511.90    4057.803000
4513.53    4168.868000
4515.17    4196.507000
4516.81    4404.727000
4518.44    4159.058000
4520.08    4596.480000
4521.71    4139.588000
4523.35    4257.071000
4524.99    4695.427000
4526.62    4409.896000
4528.26    4773.373000
4529.90    4458.677000
4531.53    4682.444000
4533.17    4279.208000
4534.80    4106.229000
4536.44    3985.052000
4538.08    3867.815000
4539.71    4188.969000
4541.35    4362.629000
4542.98    4384.562000
4544.62    4153.367000
4546.26    4392.539000
4547.89    4558.873000
4549.53    4532.461000
4551.17    4830.239000
4552.80    4648.691000
4554.44    4559.704000
4556.07    4921.297000
4557.71    4961.015000
4559.35    4761.705000
4560.98    4480.532000
4562.62    4702.686000
4564.26    4813.788000
4565.89    5017.866000
4567.53    4426.633000
4569.16    4864.868000
4570.80    4359.445000
4572.44    4422.193000
4574.07    4541.675000
4575.71    4613.940000
4577.35    4492.157000
4578.98    4407.100000
4580.62    4548.253000
4582.25    4772.722000
4583.89    5225.985000
4585.53    5058.448000
4587.16    5038.263000
4588.80    5103.782000
4590.43    5204.271000
4592.07    5062.342000
4593.71    5189.873000
4595.34    4841.550000
4596.98    4900.468000
4598.61    4866.104000
4600.25    4736.912000
4601.89    5034.921000
4603.52    4659.273000
4605.16    4753.089000
4606.80    4410.291000
4608.43    4512.730000
4610.07    4587.013000
4611.70    4582.512000
4613.34    4493.647000
4614.98    4620.526000
4616.61    4320.818000
4618.25    4623.396000
4619.89    4634.738000
4621.52    4724.234000
4623.16    4624.597000
4624.79    4813.723000
4626.43    5080.973000
4628.07    4916.247000
4629.70    4709.242000
4631.34    4552.266000
4632.98    4428.936000
4634.61    4510.918000
4636.25    4603.860000
4637.88    4796.522000
4639.52    5064.429000
4641.16    4914.811000
4642.79    5132.399000
4644.43    5146.490000
4646.06    5072.610000
4647.70    5114.063000
4649.34    4995.933000
4650.97    4871.819000
4652.61    5047.505000
4654.25    5086.321000
4655.88    5154.302000
4657.52    5137.489000
4659.15    4997.272000
4660.79    4978.201000
4662.43    4943.930000
4664.06    4988.426000
4665.70    4921.020000
4667.34    4786.114000
4668.97    4849.607000
4670.61    4646.207000
4672.24    4624.331000
4673.88    4630.203000
4675.52    4786.024000
4677.15    4752.392000
4678.79    4877.633000
4680.43    4813.212000
4682.06    4746.751000
4683.70    4823.768000
4685.33    4786.022000
4686.97    4810.598000
4688.61    4964.981000
4690.24    5053.705000
4691.88    5327.825000
4693.52    5365.620000
4695.15    5282.801000
4696.79    5242.130000
4698.42    5281.256000
4700.06    5194.044000
4701.70    5095.393000
4703.33    5187.914000
4704.97    5298.810000
4706.60    5423.158000
4708.24    5438.445000
4709.88    5135.095000
4711.51    5054.782000
4713.15    5178.931000
4714.79    4987.674000
4716.42    4887.243000
4718.06    5101.979000
4719.69    4947.755000
4721.33    5023.204000
4722.97    5093.382000
4724.60    5034.299000
4726.24    4951.016000
4727.88    4689.110000
4729.51    4695.604000
4731.15    4741.888000
4732.78    4752.342000
4734.42    4859.568000
4736.06    4697.198000
4737.69    4892.011000
4739.33    4773.413000
4740.97    4887.343000
4742.60    5066.936000
4744.24    4953.273000
4745.87    5126.399000
4747.51    4876.567000
4749.15    4507.787000
4750.78    4803.279000
4752.42    4704.821000
4754.06    4517.158000
4755.69    4587.666000
4757.33    4621.239000
4758.96    4653.837000
4760.60    4831.525000
4762.24    5005.976000
4763.87    4730.913000
4765.51    4916.087000
4767.15    4985.030000
4768.78    4699.476000
4770.42    4908.221000
4772.05    5134.225000
4773.69    4912.157000
4775.33    4679.243000
4776.96    5107.779000
4778.60    4938.493000
4780.23    4562.035000
4781.87    4616.232000
4783.51    4797.276000
4785.14    4600.960000
4786.78    4772.657000
4788.41    4693.931000
4790.05    4744.918000
4791.69    4676.937000
4793.32    4461.900000
4794.96    4930.608000
4796.60    4958.997000
4798.23    5008.281000
4799.87    5159.669000
4801.51    5251.628000
4803.14    5187.454000
4804.78    5305.976000
4806.41    5341.867000
4808.05    5311.184000
4809.69    5271.273000
4811.32    5233.495000
4812.96    5273.720000
4814.59    5038.996000
4816.23    4670.084000
4817.87    4954.868000
4819.50    4957.385000
4821.14    5269.674000
4822.77    5356.932000
4824.41    5217.490000
4826.05    5303.833000
4827.68    5290.542000
4829.32    5263.845000
4830.96    5290.005000
4832.59    5309.286000
4834.23    5616.607000
4835.86    5600.251000
4837.50    5247.209000
4839.14    5457.205000
4840.77    5393.475000
4842.41    5328.056000
4844.05    5256.322000
4845.68    5296.545000
4847.32    5576.267000
4848.95    5295.862000
4850.59    5039.500000
4852.23    4835.782000
4853.86    5020.783000
4855.50    4772.471000
4857.14    5341.828000
4858.77    5141.321000
4860.41    5272.086000
4862.04    5159.381000
4863.68    5212.097000
4865.32    5296.416000
4866.95    5251.985000
4868.59    5320.446000
4870.23    4950.679000
4871.86    5139.741000
4873.50    5532.116000
4875.13    5340.250000
4876.77    5407.934000
4878.41    5378.005000
4880.04    5203.267000
4881.68    5399.881000
4883.31    5662.858000
4884.95    5252.318000
4886.59    5424.938000
4888.22    5395.931000
4889.86    5222.386000
4891.50    5206.639000
4893.13    5827.195000
4894.77    5511.603000
4896.40    5306.391000
4898.04    5292.635000
4899.68    5584.470000
4901.31    5773.008000
4902.95    5410.518000
4904.59    5337.805000
4906.22    5696.307000
4907.86    5429.470000
4909.49    5537.597000
4911.13    5394.020000
4912.77    5424.969000
4914.40    5387.131000
4916.04    5216.119000
4917.68    5199.633000
4919.31    5563.874000
4920.95    5506.482000
4922.58    5361.712000
4924.22    5162.916000
4925.86    5267.130000
4927.49    5360.521000
4929.13    5178.044000
4930.77    5217.020000
4932.40    5586.444000
4934.04    5260.495000
4935.67    5200.042000
4937.31    5491.877000
4938.95    5390.839000
4940.58    5098.298000
4942.22    4892.355000
4943.85    5005.599000
4945.49    5003.462000
4947.13    5083.328000
4948.76    5007.788000
4950.40    5041.243000
4952.04    5290.198000
4953.67    5061.571000
4955.31    4898.701000
4956.94    5042.996000
4958.58    5003.203000
4960.22    4779.393000
4961.85    4754.022000
4963.49    4872.403000
4965.12    5097.667000
4966.76    5134.652000
4968.40    5211.880000
4970.03    5296.618000
4971.67    5243.545000
4973.31    4959.470000
4974.94    5183.600000
4976.58    5205.181000
4978.22    4993.665000
4979.85    5188.383000
4981.49    5445.597000
4983.12    5368.364000
4984.76    5371.072000
4986.40    5720.539000
4988.03    5762.109000
4989.67    5779.457000
4991.31    5813.860000
4992.94    5599.172000
4994.58    5757.996000
4996.21    5745.731000
4997.85    5335.559000
4999.49    5322.532000
5001.12    5401.333000
5002.76    5485.007000
5004.39    5310.243000
5006.03    5108.055000
5007.67    5253.251000
5009.30    5309.908000
5010.94    5261.089000
5012.57    5370.598000
5014.21    5315.335000
5015.85    5248.277000
5017.48    5372.844000
5019.12    5806.692000
5020.76    5747.875000
5022.39    5474.585000
5024.03    5498.312000
5025.66    5500.326000
5027.30    5203.489000
5028.94    5270.203000
5030.57    5197.732000
5032.21    5536.818000
5033.85    5529.785000
5035.48    5668.676000
5037.12    5690.989000
5038.75    5843.459000
5040.39    5628.124000
5042.03    5394.534000
5043.66    5735.637000
5045.30    5458.684000
5046.94    5478.764000
5048.57    5730.706000
5050.21    5650.759000
5051.84    5703.602000
5053.48    5484.774000
5055.12    5417.866000
5056.75    5262.596000
5058.39    5515.306000
5060.02    5328.169000
5061.66    5483.623000
5063.30    5262.502000
5064.93    5343.186000
5066.57    5215.386000
5068.21    5519.851000
5069.84    5194.606000
5071.48    5009.936000
5073.11    4914.950000
5074.75    5165.923000
5076.39    4892.600000
5078.02    5296.902000
5079.66    5101.326000
5081.30    5222.105000
5082.93    5434.928000
5084.57    5268.056000
5086.20    5335.849000
5087.84    5358.246000
5089.48    5090.554000
5091.11    5284.463000
5092.75    5075.183000
5094.39    5574.533000
5096.02    5709.649000
5097.66    5891.135000
5099.29    5660.676000
5100.93    5647.325000
5102.57    5162.769000
5104.20    4758.136000
5105.84    4973.055000
5107.48    4866.819000
5109.11    4776.639000
5110.75    4939.394000
5112.38    4944.884000
5114.02    4888.192000
5115.66    4847.134000
5117.29    5068.378000
5118.93    5290.434000
5120.56    5167.696000
5122.20    5159.368000
5123.84    5357.167000
5125.47    5316.805000
5127.11    5175.731000
5128.75    5003.992000
5130.38    4896.530000
5132.02    4864.365000
5133.65    5043.890000
5135.29    5212.354000
5136.93    5097.812000
5138.56    5075.497000
5140.20    5032.152000
5141.84    5248.684000
5143.47    5343.962000
5145.11    5308.196000
5146.74    5346.954000
5148.38    5616.156000
5150.02    5523.682000
5151.65    5436.306000
5153.29    5348.388000
5154.93    5334.662000
5156.56    5236.964000
5158.20    5091.480000
5159.83    4822.076000
5161.47    5037.829000
5163.11    5338.192000
5164.74    5345.283000
5166.38    5353.275000
5168.02    5274.225000
5169.65    5280.450000
5171.29    5009.291000
5172.92    4823.569000
5174.56    5059.739000
5176.20    4947.910000
5177.83    4935.121000
5179.47    5153.346000
5181.10    5022.902000
5182.74    5085.327000
5184.38    5279.763000
5186.01    5173.602000
5187.65    5161.520000
5189.29    5019.125000
5190.92    5093.774000
5192.56    4893.897000
5194.19    4759.659000
5195.83    4858.232000
5197.47    5071.765000
5199.10    4807.766000
5200.74    4901.975000
5202.38    4951.306000
5204.01    5166.237000
5205.65    5030.372000
5207.28    5027.792000
5208.92    5225.106000
5210.56    5300.823000
5212.19    4811.715000
5213.83    4804.203000
5215.47    4781.733000
5217.10    4659.049000
5218.74    4740.388000
5220.37    4731.134000
5222.01    4780.967000
5223.65    5002.306000
5225.28    4997.003000
5226.92    4869.629000
5228.56    4967.005000
5230.19    5009.542000
5231.83    4989.071000
5233.46    4940.646000
5235.10    4772.140000
5236.73    4714.027000
5238.37    4762.531000
5240.01    4933.401000
5241.64    4772.148000
5243.28    4489.779000
5244.92    4814.810000
5246.55    4599.382000
5248.19    4992.527000
5249.82    4735.851000
5251.46    4770.506000
5253.10    4740.686000
5254.73    4744.613000
5256.37    4785.534000
5258.01    4460.623000
5259.64    4143.663000
5261.28    4215.128000
5262.91    3771.819000
5264.55    3872.583000
5266.19    3838.008000
5267.82    3902.610000
5269.46    4132.801000
5271.10    4183.386000
5272.73    4147.152000
5274.37    4118.170000
5276.00    4196.246000
5277.64    4387.678000
5279.28    4136.020000
5280.91    4199.379000
5282.55    4714.894000
5284.19    4652.985000
5285.82    4407.462000
5287.46    4781.807000
5289.09    4859.150000
5290.73    5025.517000
5292.37    5134.896000
5294.00    4988.095000
5295.64    4816.742000
5297.27    4818.485000
5298.91    5061.110000
5300.55    4851.724000
5302.18    4672.428000
5303.82    4761.312000
5305.46    4712.930000
5307.09    4916.349000
5308.73    5154.798000
5310.36    5276.501000
5312.00    5341.122000
5313.64    5226.180000
5315.27    5183.194000
5316.91    5242.599000
5318.55    5313.021000
5320.18    5243.471000
5321.82    4986.430000
5323.45    5024.815000
5325.09    5102.448000
5326.73    5088.119000
5328.36    5170.237000
5330.00    5258.760000
5331.64    5461.806000
5333.27    5486.926000
5334.91    5419.356000
5336.54    5380.066000
5338.18    5752.772000
5339.82    5551.472000
5341.45    5341.143000
5343.09    5253.490000
5344.73    5201.756000
5346.36    5318.004000
5348.00    5403.737000
5349.63    5351.543000
5351.27    5514.720000
5352.91    5427.285000
5354.54    5148.784000
5356.18    5187.048000
5357.81    4994.313000
5359.45    4692.345000
5361.09    4817.030000
5362.72    4895.965000
5364.36    4724.841000
5366.00    4842.154000
5367.63    4918.210000
5369.27    5020.729000
5370.90    5043.719000
5372.54    5410.571000
5374.18    5232.967000
5375.81    5680.967000
5377.45    5498.898000
5379.09    5421.169000
5380.72    5365.161000
5382.36    5558.072000
5383.99    5433.111000
5385.63    5463.360000
5387.27    5691.634000
5388.90    5553.513000
5390.54    5341.190000
5392.18    5624.932000
5393.81    5336.312000
5395.45    5596.420000
5397.08    5664.914000
5398.72    5659.812000
5400.36    5786.818000
5401.99    5607.594000
5403.63    5758.265000
5405.27    6052.810000
5406.90    6015.588000
5408.54    5823.073000
5410.17    5750.154000
5411.81    6045.599000
5413.45    6024.292000
5415.08    5845.519000
5416.72    5717.229000
5418.35    5855.399000
5419.99    5688.573000
5421.63    5345.079000
5423.26    5281.264000
5424.90    5263.358000
5426.53    5248.139000
5428.17    5181.271000
5429.81    5518.298000
5431.44    5663.390000
5433.08    5679.158000
5434.72    5470.888000
5436.35    5362.817000
5437.99    5475.043000
5439.62    5659.876000
5441.26    5566.688000
5442.90    5411.308000
5444.53    5603.678000
5446.17    5536.391000
5447.81    5726.158000
5449.44    5848.585000
5451.08    5924.978000
5452.72    6038.640000
5454.35    6225.711000
5455.99    5862.232000
5457.62    5801.726000
5459.26    5707.583000
5460.90    5885.239000
5462.53    5882.542000
5464.17    5731.925000
5465.80    5659.598000
5467.44    5747.426000
5469.08    5502.810000
5470.71    5603.044000
5472.35    5610.134000
5473.98    5789.047000
5475.62    5749.807000
5477.26    5713.414000
5478.89    5775.170000
5480.53    5972.760000
5482.17    5846.239000
5483.80    5751.745000
5485.44    5710.144000
5487.07    5521.021000
5488.71    5514.958000
5490.35    5680.037000
5491.98    5483.371000
5493.62    5495.045000
5495.26    5612.946000
5496.89    5558.029000
5498.53    5443.940000
5500.16    5390.612000
5501.80    5280.281000
5503.44    5140.084000
5505.07    5337.993000
5506.71    5281.299000
5508.35    5269.073000
5509.98    5575.632000
5511.62    5673.067000
5513.25    5539.520000
5514.89    5928.159000
5516.53    5851.446000
5518.16    5838.859000
5519.80    5931.798000
5521.44    5953.753000
5523.07    5778.696000
5524.71    5537.753000
5526.34    5572.245000
5527.98    5748.742000
5529.62    5658.421000
5531.25    5360.694000
5532.89    5722.156000
5534.52    5639.885000
5536.16    5607.312000
5537.80    5584.107000
5539.43    5869.845000
5541.07    5830.068000
5542.71    5828.805000
5544.34    5808.898000
5545.98    5504.581000
5547.61    5552.610000
5549.25    5394.798000
5550.89    5492.487000
5552.52    5510.057000
5554.16    5215.844000
5555.80    5496.725000
5557.43    5511.228000
5559.07    5697.242000
5560.70    5745.623000
5562.34    5632.292000
5563.98    5577.674000
5565.61    5397.923000
5567.25    5640.881000
5568.89    5567.263000
5570.52    5366.492000
5572.16    4901.614000
5573.79    4031.694000
5575.43    5665.471000
5577.07    7780.396000
5578.70    6952.508000
5580.34    5575.998000
5581.98    4950.072000
5583.61    5185.684000
5585.25    5599.180000
5586.88    5639.601000
5588.52    5715.978000
5590.16    2388.745000
5591.79    5337.557000
5593.43    5409.599000
5595.06    5709.001000
5596.70    5848.186000
5598.34    5874.201000
5599.97    5527.590000
5601.61    5423.721000
5603.24    5409.365000
5604.88    5446.727000
5606.52    5482.776000
5608.15    5378.983000
5609.79    5402.454000
5611.43    5559.091000
5613.06    5766.835000
5614.70    5585.242000
5616.34    5483.426000
5617.97    5521.511000
5619.61    5505.368000
5621.24    5534.789000
5622.88    5657.687000
5624.52    6014.170000
5626.15    5564.682000
5627.79    5448.247000
5629.43    5496.050000
5631.06    5926.444000
5632.70    5527.355000
5634.33    5495.541000
5635.97    5588.342000
5637.60    5929.194000
5639.24    5749.012000
5640.88    5743.116000
5642.51    5765.848000
5644.15    5644.995000
5645.79    5662.043000
5647.42    5645.757000
5649.06    5631.643000
5650.69    6022.571000
5652.33    6056.040000
5653.97    5975.383000
5655.60    5810.291000
5657.24    5853.481000
5658.88    5890.791000
5660.51    5812.177000
5662.15    5621.386000
5663.78    5875.168000
5665.42    5801.779000
5667.06    5679.899000
5668.69    5504.147000
5670.33    5574.246000
5671.97    5589.712000
5673.60    5577.476000
5675.24    5546.091000
5676.88    5516.198000
5678.51    5593.729000
5680.15    5668.616000
5681.78    5725.115000
5683.42    5748.482000
5685.06    5652.108000
5686.69    5508.991000
5688.33    5295.922000
5689.96    5503.695000
5691.60    5462.316000
5693.24    5347.319000
5694.87    5250.989000
5696.51    5433.221000
5698.15    5502.271000
5699.78    5527.516000
5701.42    5691.065000
5703.05    5472.687000
5704.69    5491.957000
5706.33    5636.751000
5707.96    5651.074000
5709.60    5725.519000
5711.23    5767.566000
5712.87    5785.276000
5714.51    5842.004000
5716.14    5662.377000
5717.78    5636.953000
5719.42    5808.242000
5721.05    5565.332000
5722.69    5490.973000
5724.32    5444.691000
5725.96    5456.263000
5727.60    5564.189000
5729.23    5744.588000
5730.87    5857.601000
5732.51    5814.369000
5734.14    5632.700000
5735.78    5633.881000
5737.41    5557.010000
5739.05    5116.043000
5740.69    5264.207000
5742.32    5427.398000
5743.96    5623.678000
5745.60    5998.791000
5747.23    5550.438000
5748.87    5594.636000
5750.50    5787.814000
5752.14    5788.066000
5753.78    5712.322000
5755.41    5768.485000
5757.05    5860.445000
5758.69    5463.932000
5760.32    5379.307000
5761.96    5457.129000
5763.59    5642.330000
5765.23    5081.517000
5766.87    5300.869000
5768.50    5431.538000
5770.14    5474.829000
5771.77    5639.707000
5773.41    5695.445000
5775.05    5778.604000
5776.68    5944.913000
5778.32    5528.173000
5779.96    5557.324000
5781.59    5668.427000
5783.23    5905.860000
5784.86    5664.706000
5786.50    5373.380000
5788.14    5193.558000
5789.77    5406.163000
5791.41    5534.152000
5793.05    5534.995000
5794.68    5537.838000
5796.32    5712.974000
5797.95    5711.695000
5799.59    5784.093000
5801.23    5832.616000
5802.86    5601.395000
5804.50    5404.004000
5806.14    5546.526000
5807.77    5815.542000
5809.41    5591.786000
5811.04    5549.446000
5812.68    5466.791000
5814.32    5344.149000
5815.95    5379.525000
5817.59    5775.042000
5819.23    5914.315000
5820.86    5814.722000
5822.50    5884.234000
5824.13    5928.502000
5825.77    6026.538000
5827.40    6236.948000
5829.04    5841.736000
5830.68    5900.393000
5832.31    5924.137000
5833.95    5834.734000
5835.59    5623.868000
5837.22    5677.997000
5838.86    5688.511000
5840.49    5503.884000
5842.13    5535.990000
5843.77    5708.457000
5845.40    5807.724000
5847.04    5504.427000
5848.68    5837.797000
5850.31    5753.153000
5851.95    5613.500000
5853.59    6023.079000
5855.22    5903.714000
5856.86    5839.360000
5858.49    5795.649000
5860.13    5839.592000
5861.77    5832.742000
5863.40    5860.364000
5865.04    5893.561000
5866.67    5744.008000
5868.31    5684.014000
5869.95    5921.590000
5871.58    6439.494000
5873.22    6092.864000
5874.85    5770.624000
5876.49    5711.001000
5878.13    6008.861000
5879.76    5960.046000
5881.40    5662.154000
5883.04    5430.390000
5884.67    5331.466000
5886.31    5355.760000
5887.94    5457.566000
5889.58    5488.184000
5891.22    5339.071000
5892.85    5525.165000
5894.49    5500.438000
5896.13    5467.802000
5897.76    5566.240000
5899.40    5817.343000
5901.03    5851.644000
5902.67    5808.165000
5904.31    5721.639000
5905.94    5506.518000
5907.58    5541.421000
5909.22    5652.688000
5910.85    5617.829000
5912.49    5527.351000
5914.12    5695.067000
5915.76    5976.761000
5917.40    5665.938000
5919.03    5569.206000
5920.67    5602.170000
5922.31    5724.142000
5923.94    5763.297000
5925.58    5764.115000
5927.21    5893.455000
5928.85    6184.390000
5930.49    5685.957000
5932.12    5836.521000
5933.76    6023.261000
5935.40    6261.974000
5937.03    5759.880000
5938.67    5786.027000
5940.30    5879.758000
5941.94    6052.948000
5943.58    5796.622000
5945.21    5742.385000
5946.85    5716.072000
5948.48    5697.354000
5950.12    5605.898000
5951.76    5679.434000
5953.39    5762.942000
5955.03    5758.208000
5956.67    5718.869000
5958.30    5731.976000
5959.94    5740.114000
5961.57    5611.907000
5963.21    5458.797000
5964.85    5525.468000
5966.48    5657.549000
5968.12    5174.723000
5969.76    5458.734000
5971.39    5539.480000
5973.03    5468.875000
5974.66    5472.819000
5976.30    5370.018000
5977.94    5375.595000
5979.57    5497.770000
5981.21    5373.057000
5982.85    5518.513000
5984.48    5603.099000
5986.12    5608.376000
5987.75    5510.525000
5989.39    5396.938000
5991.03    5215.574000
5992.66    4895.559000
5994.30    4668.594000
5995.94    4476.504000
5997.57    4390.392000
5999.21    4618.936000
6000.84    4259.073000
6002.48    4343.119000
6004.12    4507.030000
6005.75    4652.374000
6007.39    4800.218000
6009.02    4800.705000
6010.66    4833.197000
6012.30    5446.630000
6013.93    5293.985000
6015.57    5324.146000
6017.20    5412.155000
6018.84    5264.191000
6020.48    5360.057000
6022.11    5381.338000
6023.75    5349.815000
6025.39    5516.250000
6027.02    5463.133000
6028.66    5386.203000
6030.30    5287.624000
6031.93    5331.138000
6033.57    5287.534000
6035.20    5319.718000
6036.84    5470.037000
6038.48    5691.597000
6040.11    5441.500000
6041.75    5294.068000
6043.39    5398.260000
6045.02    5324.719000
6046.66    5402.640000
6048.29    5452.434000
6049.93    5400.852000
6051.56    5455.766000
6053.20    5307.004000
6054.84    5198.202000
6056.48    5443.041000
6058.11    5628.970000
6059.75    5616.789000
6061.38    5550.607000
6063.02    5533.767000
6064.65    5639.657000
6066.29    5679.760000
6067.93    5689.011000
6069.56    5717.064000
6071.20    5665.829000
6072.84    5600.907000
6074.47    5516.650000
6076.11    5526.283000
6077.74    5440.901000
6079.38    5448.300000
6081.02    5532.187000
6082.65    5747.194000
6084.29    5590.006000
6085.93    5530.458000
6087.56    5587.564000
6089.20    5314.495000
6090.84    5384.313000
6092.47    5397.801000
6094.11    5309.123000
6095.74    5571.299000
6097.38    5567.247000
6099.02    5546.960000
6100.65    5566.940000
6102.29    5494.513000
6103.92    5435.383000
6105.56    5395.694000
6107.20    5457.634000
6108.83    5551.791000
6110.47    5439.488000
6112.10    5339.422000
6113.74    5619.404000
6115.38    5527.428000
6117.01    5503.805000
6118.65    5492.889000
6120.29    5440.267000
6121.92    5378.167000
6123.56    5240.074000
6125.19    5081.124000
6126.83    5562.734000
6128.47    5634.867000
6130.10    5617.021000
6131.74    5523.076000
6133.38    5597.611000
6135.01    5547.093000
6136.65    5631.429000
6138.28    5862.151000
6139.92    5627.668000
6141.56    5625.247000
6143.19    5626.434000
6144.83    5642.001000
6146.47    5748.373000
6148.10    5773.582000
6149.74    5807.267000
6151.37    5895.829000
6153.01    6048.488000
6154.65    5903.946000
6156.28    5770.510000
6157.92    5841.227000
6159.56    6006.649000
6161.19    5844.614000
6162.83    5653.476000
6164.46    5701.611000
6166.10    5755.485000
6167.74    5785.385000
6169.37    5776.033000
6171.01    5577.724000
6172.65    5541.194000
6174.28    5540.815000
6175.92    5568.363000
6177.55    5879.279000
6179.19    5907.165000
6180.83    5898.564000
6182.46    5857.552000
6184.10    5904.777000
6185.73    5820.101000
6187.37    5841.520000
6189.01    5963.074000
6190.64    5678.833000
6192.28    5541.771000
6193.92    5463.610000
6195.55    5476.743000
6197.19    5849.086000
6198.82    5513.038000
6200.46    5325.758000
6202.10    5524.177000
6203.73    5628.188000
6205.37    5593.464000
6207.01    5545.927000
6208.64    5544.055000
6210.28    5530.703000
6211.91    5553.878000
6213.55    5560.030000
6215.19    5487.045000
6216.82    5375.514000
6218.46    5565.754000
6220.10    5803.267000
6221.73    5781.143000
6223.37    5766.432000
6225.00    5777.814000
6226.64    5775.240000
6228.28    5596.690000
6229.91    5473.227000
6231.55    5405.790000
6233.19    5365.560000
6234.82    5457.249000
6236.46    5481.036000
6238.09    5562.030000
6239.73    5696.215000
6241.36    5663.662000
6243.00    5700.131000
6244.64    5685.181000
6246.27    5621.811000
6247.91    5402.415000
6249.55    5404.522000
6251.18    5458.269000
6252.82    5606.715000
6254.45    5639.745000
6256.09    5636.466000
6257.73    5596.340000
6259.36    5502.069000
6261.00    5541.956000
6262.64    5500.912000
6264.27    5463.939000
6265.91    5514.346000
6267.55    5454.229000
6269.18    5425.812000
6270.82    5355.805000
6272.45    5037.268000
6274.09    5115.360000
6275.73    4964.462000
6277.36    4765.604000
6279.00    5078.456000
6280.64    4857.306000
6282.27    4786.325000
6283.91    4815.956000
6285.54    5397.097000
6287.18    5193.517000
6288.81    5182.634000
6290.45    5302.576000
6292.09    5156.525000
6293.72    4973.684000
6295.36    4991.480000
6297.00    5238.034000
6298.63    5179.757000
6300.27    5209.105000
6301.90    5233.494000
6303.54    5262.451000
6305.18    5218.628000
6306.81    5224.792000
6308.45    5235.153000
6310.09    5276.016000
6311.72    5225.605000
6313.36    5305.126000
6314.99    5359.965000
6316.63    5286.169000
6318.27    5413.369000
6319.90    5329.684000
6321.54    5190.982000
6323.18    5056.057000
6324.81    5222.921000
6326.45    5191.083000
6328.08    5081.447000
6329.72    4976.141000
6331.36    5129.299000
6332.99    5037.823000
6334.63    4826.255000
6336.27    4817.144000
6337.90    5151.350000
6339.54    5259.796000
6341.17    5194.941000
6342.81    4935.082000
6344.45    4991.718000
6346.08    5065.868000
6347.72    5163.480000
6349.35    4806.617000
6350.99    4895.237000
6352.63    4971.230000
6354.26    5034.973000
6355.90    5003.330000
6357.54    5018.938000
6359.17    4990.693000
6360.81    4887.733000
6362.44    5034.293000
6364.08    4975.863000
6365.72    4920.481000
6367.35    4967.904000
6368.99    5025.139000
6370.63    4957.448000
6372.26    4892.304000
6373.90    4976.967000
6375.53    5231.407000
6377.17    5266.737000
6378.81    5228.401000
6380.44    5203.230000
6382.08    5425.950000
6383.72    5332.288000
6385.35    5123.533000
6386.99    5385.200000
6388.62    5247.366000
6390.26    5349.057000
6391.90    5578.741000
6393.53    5294.648000
6395.17    5178.906000
6396.81    5243.136000
6398.44    5479.104000
6400.08    5092.073000
6401.71    5185.639000
6403.35    5298.532000
6404.99    5455.733000
6406.62    5099.427000
6408.26    5253.225000
6409.90    5364.950000
6411.53    5380.438000
6413.17    5519.163000
6414.80    5495.073000
6416.44    5497.435000
6418.08    5638.230000
6419.71    5491.131000
6421.35    5400.411000
6422.98    5311.943000
6424.62    5208.838000
6426.26    5343.382000
6427.89    5304.227000
6429.53    5249.273000
6431.16    5443.520000
6432.80    5310.659000
6434.44    5256.064000
6436.07    5212.187000
6437.71    5036.870000
6439.35    5127.354000
6440.98    5187.167000
6442.62    5222.775000
6444.26    5367.015000
6445.89    5237.499000
6447.53    5241.972000
6449.16    5350.434000
6450.80    5335.714000
6452.44    5305.013000
6454.07    5258.318000
6455.71    5190.689000
6457.35    5396.455000
6458.98    5403.352000
6460.62    5479.601000
6462.25    5723.364000
6463.89    5300.763000
6465.52    5290.915000
6467.16    5306.700000
6468.80    5320.047000
6470.44    5169.992000
6472.07    5107.845000
6473.71    5065.337000
6475.34    5057.072000
6476.98    5050.448000
6478.61    5058.642000
6480.25    5105.158000
6481.89    5374.664000
6483.52    5234.260000
6485.16    5223.154000
6486.80    5277.679000
6488.43    5539.036000
6490.07    5431.602000
6491.70    5381.546000
6493.34    5350.624000
6494.98    5428.540000
6496.61    5368.524000
6498.25    5357.697000
6499.89    5371.792000
6501.52    5454.355000
6503.16    5117.976000
6504.80    5022.303000
6506.43    5177.346000
6508.07    5231.028000
6509.70    5312.257000
6511.34    5222.502000
6512.98    4883.040000
6514.61    5140.705000
6516.25    5231.031000
6517.88    5301.584000
6519.52    5395.091000
6521.16    5165.184000
6522.79    5198.901000
6524.43    5289.553000
6526.06    5464.931000
6527.70    5105.277000
6529.34    5074.143000
6530.97    5131.675000
6532.61    5298.966000
6534.25    5232.082000
6535.88    5325.898000
6537.52    5432.026000
6539.15    5260.435000
6540.79    5284.886000
6542.43    5162.167000
6544.06    4988.506000
6545.70    5331.928000
6547.34    5160.394000
6548.97    5153.705000
6550.61    5246.838000
6552.24    5325.395000
6553.88    5341.547000
6555.52    5320.937000
6557.15    5263.658000
6558.79    5437.409000
6560.43    5290.184000
6562.06    5139.070000
6563.70    5000.201000
6565.33    5067.292000
6566.97    5200.319000
6568.61    5250.137000
6570.24    5159.451000
6571.88    5127.085000
6573.52    5125.541000
6575.15    5116.793000
6576.79    5091.171000
6578.42    5196.452000
6580.06    5168.863000
6581.70    5117.979000
6583.33    5108.806000
6584.97    5116.932000
6586.60    5224.006000
6588.24    5330.503000
6589.88    5264.951000
6591.51    5402.873000
6593.15    5383.488000
6594.79    5279.465000
6596.42    5142.075000
6598.06    5151.490000
6599.69    5152.575000
6601.33    5137.394000
6602.97    5070.719000
6604.60    4961.145000
6606.24    4922.632000
6607.88    4945.101000
6609.51    5003.422000
6611.15    4874.640000
6612.78    4772.943000
6614.42    4719.877000
6616.06    4702.496000
6617.69    4893.418000
6619.33    5021.598000
6620.97    5056.656000
6622.60    5021.672000
6624.24    4979.366000
6625.87    4944.706000
6627.51    4942.161000
6629.15    4971.541000
6630.78    4997.941000
6632.42    5055.927000
6634.06    5263.867000
6635.69    5209.640000
6637.33    5208.555000
6638.96    5216.934000
6640.60    5228.813000
6642.24    5331.623000
6643.87    5234.920000
6645.51    5056.074000
6647.15    4979.293000
6648.78    5052.139000
6650.42    5053.122000
6652.05    5006.365000
6653.69    4961.727000
6655.32    5135.263000
6656.96    5205.525000
6658.60    5186.635000
6660.23    5196.417000
6661.87    5197.298000
6663.51    5153.215000
6665.14    5057.298000
6666.78    5123.153000
6668.41    5218.984000
6670.05    5285.313000
6671.69    5333.670000
6673.32    5078.894000
6674.96    5062.037000
6676.60    5064.466000
6678.23    5076.442000
6679.87    5046.925000
6681.51    5251.039000
6683.14    5541.507000
6684.78    6049.426000
6686.41    5990.208000
6688.05    5798.708000
6689.69    5545.722000
6691.32    5172.194000
6692.96    4942.534000
6694.60    4889.065000
6696.23    4889.381000
6697.87    4933.821000
6699.50    5208.867000
6701.14    5416.139000
6702.77    5579.068000
6704.41    5539.686000
6706.05    5594.416000
6707.68    5579.194000
6709.32    5494.008000
6710.96    5039.292000
6712.59    4910.279000
6714.23    4900.214000
6715.86    5014.940000
6717.50    4799.324000
6719.14    4858.557000
6720.77    4930.776000
6722.41    5042.271000
6724.05    4855.873000
6725.68    4889.824000
6727.32    4923.311000
6728.95    4938.634000
6730.59    4875.158000
6732.23    4848.195000
6733.86    4843.970000
6735.50    4915.278000
6737.14    4933.777000
6738.77    4819.682000
6740.41    4726.367000
6742.04    4868.127000
6743.68    4889.125000
6745.32    4763.198000
6746.95    4615.989000
6748.59    4729.981000
6750.23    4937.069000
6751.86    4971.171000
6753.50    4912.433000
6755.13    4736.917000
6756.77    4668.877000
6758.41    4706.150000
6760.04    4800.685000
6761.68    4835.158000
6763.31    4760.821000
6764.95    4804.939000
6766.59    4966.066000
6768.22    4916.380000
6769.86    4748.578000
6771.50    4589.649000
6773.13    4451.861000
6774.77    4480.354000
6776.40    4586.191000
6778.04    4631.091000
6779.68    4569.114000
6781.31    4615.969000
6782.95    4690.609000
6784.59    4709.391000
6786.22    4591.307000
6787.86    4516.942000
6789.49    4474.675000
6791.13    4453.348000
6792.77    4508.575000
6794.40    4637.029000
6796.04    4629.074000
6797.68    4592.109000
6799.31    4671.043000
6800.95    4738.246000
6802.58    4703.001000
6804.22    4615.531000
6805.86    4497.895000
6807.49    4545.683000
6809.13    4688.696000
6810.77    4872.387000
6812.40    4761.609000
6814.04    4585.896000
6815.67    4554.801000
6817.31    4635.325000
6818.95    4538.147000
6820.58    4493.435000
6822.22    4515.722000
6823.85    4623.437000
6825.49    4775.796000
6827.13    4800.230000
6828.76    4731.961000
6830.40    4519.771000
6832.04    4648.210000
6833.67    4669.019000
6835.31    4720.781000
6836.94    4897.078000
6838.58    5026.666000
6840.22    4980.151000
6841.85    4929.404000
6843.49    4980.300000
6845.12    4956.925000
6846.76    4862.418000
6848.40    4726.581000
6850.03    4525.259000
6851.67    4509.058000
6853.31    4568.953000
6854.94    4644.485000
6856.58    4646.421000
6858.22    4791.508000
6859.85    4799.796000
6861.49    4707.951000
6863.12    4280.438000
6864.76    4028.332000
6866.40    3747.213000
6868.03    3421.537000
6869.67    3159.502000
6871.31    3067.064000
6872.94    3114.265000
6874.58    3317.367000
6876.21    3793.146000
6877.85    3833.245000
6879.48    3914.387000
6881.12    4094.901000
6882.76    4285.857000
6884.40    4038.801000
6886.03    3837.371000
6887.67    3805.663000
6889.30    3878.503000
6890.94    3861.647000
6892.57    3811.572000
6894.21    3706.740000
6895.85    3782.890000
6897.48    3922.597000
6899.12    4056.348000
6900.76    4135.257000
6902.39    4028.483000
6904.03    4050.989000
6905.66    4104.205000
6907.30    4101.431000
6908.94    4234.239000
6910.57    4195.186000
6912.21    4069.391000
6913.85    3995.844000
6915.48    4031.006000
6917.12    4123.703000
6918.76    4252.862000
6920.39    4325.777000
6922.03    4213.646000
6923.66    4200.614000
6925.30    4286.227000
6926.94    4220.400000
6928.57    4246.081000
6930.21    4219.280000
6931.84    4124.812000
6933.48    4223.067000
6935.12    4212.269000
6936.75    4198.607000
6938.39    4207.227000
6940.02    4225.725000
6941.66    4279.083000
6943.30    4330.571000
6944.93    4383.889000
6946.57    4280.436000
6948.21    4288.834000
6949.84    4294.999000
6951.48    4239.498000
6953.11    4253.218000
6954.75    4313.358000
6956.39    4385.525000
6958.02    4469.208000
6959.66    4201.334000
6961.30    4166.745000
6962.93    4204.645000
6964.57    4043.954000
6966.20    4132.679000
6967.84    4261.539000
6969.48    4402.325000
6971.11    4176.763000
6972.75    4171.270000
6974.39    4259.775000
6976.02    4440.792000
6977.66    4271.361000
6979.29    4233.053000
6980.93    4150.520000
6982.57    4015.133000
6984.20    4281.928000
6985.84    4118.455000
6987.48    4102.138000
6989.11    4399.338000
6990.75    4219.946000
6992.38    4314.400000
6994.02    4361.555000
6995.66    4234.154000
6997.29    4443.945000
6998.93    4394.536000
7000.56    4310.482000
7002.20    4295.780000
7003.84    4076.269000
7005.47    4188.292000
7007.11    4331.418000
7008.75    4177.271000
7010.38    4374.053000
7012.02    4467.308000
7013.65    4484.418000
7015.29    4200.767000
7016.93    4233.239000
7018.56    4214.710000
7020.20    4168.181000
7021.84    4247.963000
7023.47    4086.142000
7025.11    4081.039000
7026.74    4187.696000
7028.38    3984.429000
7030.02    4206.990000
7031.65    4282.055000
7033.29    4190.488000
7034.93    3983.131000
7036.56    4196.859000
7038.20    4307.912000
7039.83    4255.038000
7041.47    4120.998000
7043.11    4140.661000
7044.74    4196.516000
7046.38    4323.494000
7048.02    3993.651000
7049.65    3992.249000
7051.29    4039.303000
7052.92    4114.270000
7054.56    4169.418000
7056.20    4224.769000
7057.83    4266.839000
7059.47    4262.389000
7061.10    4103.860000
7062.74    4038.437000
7064.38    4013.593000
7066.01    4120.877000
7067.65    4090.651000
7069.28    4034.336000
7070.92    3973.218000
7072.56    4150.106000
7074.19    4240.797000
7075.83    4261.784000
7077.47    4224.547000
7079.10    3982.520000
7080.74    4141.117000
7082.38    4167.708000
7084.01    4058.496000
7085.65    4113.267000
7087.28    4220.810000
7088.92    4202.205000
7090.56    4009.958000
7092.19    4049.338000
7093.83    4136.723000
7095.47    4221.463000
7097.10    4315.576000
7098.74    4093.520000
7100.37    3970.280000
7102.01    3885.276000
7103.65    3895.114000
7105.28    4119.675000
7106.92    4135.807000
7108.56    4116.028000
7110.19    4145.979000
7111.83    3978.948000
7113.46    4057.326000
7115.10    4206.753000
7116.73    4352.095000
7118.37    4038.873000
7120.01    3955.670000
7121.64    3990.606000
7123.28    4309.323000
7124.92    4341.983000
7126.55    4255.493000
7128.19    4085.131000
7129.82    4018.950000
7131.46    4033.859000
7133.10    3982.898000
7134.73    3866.054000
7136.37    3982.799000
7138.01    3935.605000
7139.64    3906.731000
7141.28    3914.721000
7142.91    4166.336000
7144.55    4050.850000
7146.19    3990.097000
7147.82    4076.081000
7149.46    4017.179000
7151.10    3966.197000
7152.73    3924.771000
7154.37    3927.495000
7156.00    3891.201000
7157.64    3888.650000
7159.28    3913.844000
7160.91    4039.620000
7162.55    4039.923000
7164.19    3962.082000
7165.82    3845.732000
7167.46    3670.268000
7169.09    3704.438000
7170.73    3767.235000
7172.37    3828.528000
7174.00    3776.745000
7175.64    3732.602000
7177.27    3742.944000
7178.91    3771.341000
7180.55    3609.414000
7182.18    3463.478000
7183.82    3378.475000
7185.46    3325.678000
7187.09    3456.805000
7188.73    3505.903000
7190.36    3516.025000
7192.00    3478.276000
7193.64    3413.359000
7195.27    3478.647000
7196.91    3530.090000
7198.55    3564.625000
7200.18    3368.656000
7201.82    3367.433000
7203.45    3363.883000
7205.09    3329.151000
7206.73    3326.950000
7208.36    3424.283000
7210.00    3515.912000
7211.64    3548.639000
7213.27    3627.581000
7214.91    3584.407000
7216.54    3512.231000
7218.18    3474.994000
7219.82    3487.696000
7221.45    3503.521000
7223.09    3513.819000
7224.73    3494.739000
7226.36    3429.440000
7228.00    3414.581000
7229.63    3413.511000
7231.27    3293.407000
7232.91    3251.021000
7234.54    3262.717000
7236.18    3303.174000
7237.81    3269.491000
7239.45    3240.026000
7241.09    3243.190000
7242.72    3280.732000
7244.36    3120.273000
7246.00    3209.531000
7247.63    3206.396000
7249.27    3060.135000
7250.90    3157.657000
7252.54    3138.087000
7254.18    3155.321000
7255.81    3291.853000
7257.45    3124.880000
7259.09    3140.575000
7260.72    3166.312000
7262.36    3154.587000
7263.99    3075.655000
7265.63    3101.472000
7267.27    3116.985000
7268.90    2997.723000
7270.54    3019.450000
7272.18    3204.869000
7273.81    3389.673000
7275.45    3168.980000
7277.08    3142.834000
7278.72    3182.616000
7280.36    3253.527000
7281.99    3351.376000
7283.63    3230.637000
7285.27    3177.948000
7286.90    3155.723000
7288.54    3069.123000
7290.17    3169.338000
7291.81    3133.653000
7293.44    2965.565000
7295.08    3162.250000
7296.72    3239.354000
7298.35    3264.669000
7299.99    3232.284000
7301.63    3315.882000
7303.26    3284.694000
7304.90    3240.374000
7306.53    3197.059000
7308.17    3291.423000
7309.81    3239.143000
7311.44    3206.339000
7313.08    3285.368000
7314.72    3006.203000
7316.35    3056.298000
7317.99    3134.084000
7319.62    3081.518000
7321.26    3138.110000
7322.90    3141.991000
7324.53    3155.826000
7326.17    3350.354000
7327.81    3212.050000
7329.44    3195.383000
7331.08    3242.773000
7332.72    3472.898000
7334.35    3239.147000
7335.99    3183.211000
7337.62    3223.682000
7339.26    3313.846000
7340.90    3214.964000
7342.53    3153.804000
7344.17    3122.133000
7345.80    3102.789000
7347.44    3190.521000
7349.08    3249.458000
7350.71    3285.913000
7352.35    3224.854000
7353.98    3229.358000
7355.62    3291.461000
7357.26    3472.888000
7358.89    3356.019000
7360.53    3226.162000
7362.17    3137.590000
7363.80    3156.866000
7365.44    3156.416000
7367.07    3206.542000
7368.71    3262.354000
7370.35    3327.598000
7371.98    3223.766000
7373.62    3261.883000
7375.26    3315.742000
7376.89    3266.453000
7378.53    3267.259000
7380.16    3276.521000
7381.80    3289.295000
7383.44    3333.714000
7385.07    3266.006000
7386.71    3243.328000
7388.35    3235.833000
7389.98    3245.747000
7391.62    3243.611000
7393.25    3260.519000
7394.89    3286.003000
7396.53    3335.978000
7398.16    3267.635000
7399.80    3211.050000
7401.44    3161.577000
7403.07    3213.032000
7404.71    3220.790000
7406.34    3231.352000
7407.98    3265.289000
7409.62    3107.225000
7411.25    3161.045000
7412.89    3203.735000
7414.52    3191.783000
7416.16    3181.851000
7417.80    3213.323000
7419.43    3221.246000
7421.07    3147.096000
7422.71    3021.195000
7424.34    3039.553000
7425.98    3099.129000
7427.61    3211.487000
7429.25    3078.791000
7430.89    3115.587000
7432.52    3195.962000
7434.16    3179.668000
7435.80    3295.207000
7437.43    3336.116000
7439.07    3330.558000
7440.70    3280.384000
7442.34    3313.412000
7443.98    3306.054000
7445.61    3261.352000
7447.25    3115.987000
7448.89    3268.783000
7450.52    3308.359000
7452.16    3236.837000
7453.79    3216.042000
7455.43    3165.802000
7457.07    3114.466000
7458.70    3072.382000
7460.34    3338.276000
7461.98    3258.831000
7463.61    3159.896000
7465.25    3068.896000
7466.88    3115.665000
7468.52    3086.539000
7470.16    3070.625000
7471.79    3136.073000
7473.43    3284.407000
7475.06    3185.220000
7476.70    3092.014000
7478.34    3261.236000
7479.97    3157.588000
7481.61    3133.954000
7483.24    3119.143000
7484.88    3022.159000
7486.52    3173.902000
7488.15    3156.371000
7489.79    3057.572000
7491.43    2991.896000
7493.06    2905.252000
7494.70    2967.995000
7496.34    3114.714000
7497.97    2994.204000
7499.61    2966.893000
7501.24    2981.070000
7502.88    3034.715000
7504.52    3160.994000
7506.15    3095.311000
7507.79    3075.359000
7509.43    3129.863000
7511.06    2977.378000
7512.70    2933.982000
7514.33    2947.292000
7515.97    3063.614000
7517.60    2900.933000
7519.24    2962.651000
7520.88    3012.355000
7522.52    2980.484000
7524.15    3112.822000
7525.79    3003.594000
7527.42    2891.944000
7529.06    2949.742000
7530.69    2932.896000
7532.33    2881.917000
7533.97    2853.454000
7535.60    3035.389000
7537.24    3128.285000
7538.88    3169.989000
7540.51    3170.061000
7542.15    3021.146000
7543.78    3021.450000
7545.42    3068.696000
7547.06    3133.802000
7548.69    3056.476000
7550.33    2984.712000
7551.97    2929.591000
7553.60    2876.620000
7555.24    2899.993000
7556.88    2896.732000
7558.51    2894.937000
7560.15    2895.959000
7561.78    2966.412000
7563.42    3010.508000
7565.06    3042.428000
7566.69    3066.025000
7568.33    2917.885000
7569.96    2983.480000
7571.60    3052.976000
7573.24    3102.572000
7574.87    3073.706000
7576.51    3002.035000
7578.15    2948.484000
