#Wavelength     Flux
#[Angstrom]   [Counts]
3923.59     0.000000
3925.22     0.000000
3926.84     0.000000
3928.46     0.000000
3930.09     0.000000
3931.71     0.000000
3933.34     0.000000
3934.96     0.000000
3936.58     0.000000
3938.21     0.000000
3939.83     0.000000
3941.46     0.000000
3943.08    -1347.829000
3944.70    6901.983000
3946.33    16792.810000
3947.95    12826.690000
3949.58    12258.100000
3951.20    11411.250000
3952.82    11469.770000
3954.45    10073.900000
3956.07    8209.223000
3957.70    6998.713000
3959.32    6052.355000
3960.94    6440.595000
3962.57    7380.750000
3964.19    8066.675000
3965.82    8802.434000
3967.44    10261.800000
3969.06    11249.880000
3970.69    11491.270000
3972.31    12645.800000
3973.94    14591.810000
3975.56    14635.260000
3977.18    15074.970000
3978.81    16060.860000
3980.43    15826.830000
3982.06    14282.480000
3983.68    14777.920000
3985.30    14277.880000
3986.93    13367.360000
3988.55    11338.040000
3990.18    9527.492000
3991.80    8705.375000
3993.43    8377.685000
3995.05    7970.591000
3996.67    7973.066000
3998.30    8829.408000
3999.92    9997.748000
4001.55    12333.220000
4003.17    14665.470000
4004.79    15047.690000
4006.42    17405.770000
4008.04    18562.160000
4009.67    18743.730000
4011.29    17819.630000
4012.91    18886.270000
4014.54    18573.600000
4016.16    19118.030000
4017.79    19938.230000
4019.41    19061.690000
4021.03    19737.870000
4022.66    20508.890000
4024.28    20811.950000
4025.91    22517.700000
4027.53    20593.720000
4029.15    20517.940000
4030.78    21466.030000
4032.40    21515.700000
4034.03    20757.270000
4035.65    21610.380000
4037.27    22462.180000
4038.90    22579.760000
4040.52    21840.290000
4042.15    21865.210000
4043.77    21743.140000
4045.39    23197.870000
4047.02    22793.210000
4048.64    23058.110000
4050.27    22827.800000
4051.89    22092.560000
4053.51    22562.510000
4055.14    22309.460000
4056.76    21457.880000
4058.39    21815.570000
4060.01    20098.400000
4061.64    20210.070000
4063.26    21233.610000
4064.88    21628.400000
4066.51    22794.120000
4068.13    21917.890000
4069.76    21400.750000
4071.38    20440.410000
4073.00    20317.750000
4074.63    21325.700000
4076.25    20874.190000
4077.88    21971.590000
4079.50    21535.760000
4081.12    21638.730000
4082.75    21381.590000
4084.37    19553.410000
4086.00    20408.910000
4087.62    20432.840000
4089.24    19303.650000
4090.87    20203.700000
4092.49    20167.680000
4094.12    19481.350000
4095.74    20516.680000
4097.36    21026.920000
4098.99    20760.780000
4100.61    20639.890000
4102.24    19895.450000
4103.86    19640.460000
4105.48    20664.230000
4107.11    21456.040000
4108.73    21817.800000
4110.36    22262.800000
4111.98    22194.080000
4113.60    23050.190000
4115.23    23390.490000
4116.85    23304.120000
4118.48    22717.190000
4120.10    22501.190000
4121.73    21047.440000
4123.35    21303.630000
4124.97    19154.130000
4126.60    19253.940000
4128.22    18826.480000
4129.85    18482.470000
4131.47    17894.670000
4133.09    18623.370000
4134.72    20089.120000
4136.34    20578.800000
4137.97    20732.840000
4139.59    21561.010000
4141.21    22046.410000
4142.84    21850.290000
4144.46    22606.030000
4146.09    21576.670000
4147.71    21187.620000
4149.33    21324.170000
4150.96    21051.150000
4152.58    21720.600000
4154.21    22331.220000
4155.83    21825.140000
4157.45    21243.940000
4159.08    20779.460000
4160.70    21571.410000
4162.33    20749.480000
4163.95    20349.400000
4165.57    21879.300000
4167.20    22140.080000
4168.82    21767.900000
4170.45    20519.220000
4172.07    21155.920000
4173.69    20544.440000
4175.32    19366.130000
4176.94    20537.260000
4178.57    20180.180000
4180.19    20396.590000
4181.81    20062.710000
4183.44    19899.370000
4185.06    20698.460000
4186.69    21045.760000
4188.31    20696.940000
4189.94    21251.320000
4191.56    21833.620000
4193.18    21389.530000
4194.81    21376.310000
4196.43    21383.830000
4198.06    20291.140000
4199.68    19633.930000
4201.30    19221.300000
4202.93    19705.450000
4204.55    19976.650000
4206.18    19635.980000
4207.80    20582.520000
4209.42    20305.270000
4211.05    20289.540000
4212.67    21223.040000
4214.30    21366.200000
4215.92    21688.330000
4217.54    22325.480000
4219.17    22031.190000
4220.79    21126.290000
4222.41    20925.290000
4224.04    21234.430000
4225.66    20260.840000
4227.29    19784.720000
4228.91    21513.250000
4230.54    21658.210000
4232.16    20940.880000
4233.78    21875.300000
4235.41    22665.020000
4237.03    23155.730000
4238.66    24130.950000
4240.28    23885.990000
4241.90    23123.410000
4243.53    23174.110000
4245.15    22637.550000
4246.78    22903.350000
4248.40    22979.840000
4250.02    22847.310000
4251.65    22109.650000
4253.27    20856.280000
4254.90    19888.000000
4256.52    20388.530000
4258.14    21244.410000
4259.77    21511.310000
4261.39    22483.550000
4263.02    23534.110000
4264.64    23065.380000
4266.26    22680.540000
4267.89    23046.680000
4269.51    23507.320000
4271.14    24511.010000
4272.76    24521.660000
4274.39    25648.700000
4276.01    24295.370000
4277.63    23136.240000
4279.26    23202.200000
4280.88    22842.850000
4282.51    22946.230000
4284.13    23175.400000
4285.75    23880.500000
4287.38    23927.260000
4289.00    23434.710000
4290.62    25079.000000
4292.25    25092.120000
4293.87    24520.540000
4295.50    24402.130000
4297.12    23646.630000
4298.74    23184.850000
4300.37    21518.380000
4301.99    21302.740000
4303.62    22121.570000
4305.24    22331.690000
4306.86    22882.520000
4308.49    24104.810000
4310.11    23537.690000
4311.74    24042.070000
4313.36    21401.990000
4314.99    21522.400000
4316.61    22205.770000
4318.23    22373.600000
4319.86    21702.350000
4321.48    20512.140000
4323.11    20997.600000
4324.73    20716.000000
4326.35    19376.680000
4327.98    18320.770000
4329.60    17789.590000
4331.23    16822.360000
4332.85    17081.720000
4334.47    17073.540000
4336.10    16741.380000
4337.72    18325.420000
4339.35    18310.820000
4340.97    19457.130000
4342.59    22583.110000
4344.22    23311.080000
4345.84    25226.110000
4347.47    26438.930000
4349.09    26495.080000
4350.71    25714.320000
4352.34    24220.310000
4353.96    23611.510000
4355.59    23273.790000
4357.21    24746.750000
4358.84    26116.980000
4360.46    26670.180000
4362.08    26065.170000
4363.71    27412.300000
4365.33    24583.540000
4366.95    23133.160000
4368.58    22726.850000
4370.20    22051.420000
4371.83    22744.200000
4373.45    23356.400000
4375.07    25051.460000
4376.70    25501.210000
4378.32    26565.390000
4379.95    26305.170000
4381.57    24774.460000
4383.19    24830.630000
4384.82    25336.790000
4386.44    26317.520000
4388.07    27155.620000
4389.69    26561.910000
4391.31    27732.170000
4392.94    28178.920000
4394.56    28516.960000
4396.19    28328.940000
4397.81    27385.040000
4399.44    26960.040000
4401.06    26314.840000
4402.68    26260.650000
4404.31    24728.680000
4405.93    26431.810000
4407.56    25066.990000
4409.18    24612.680000
4410.80    24025.290000
4412.43    23639.470000
4414.05    23693.200000
4415.68    23215.300000
4417.30    23410.340000
4418.92    23226.950000
4420.55    24502.510000
4422.17    25120.000000
4423.80    26028.410000
4425.42    27098.410000
4427.04    26208.790000
4428.67    25586.460000
4430.29    26168.180000
4431.92    25607.740000
4433.54    24891.740000
4435.16    25100.930000
4436.79    24517.840000
4438.41    24465.870000
4440.04    26696.340000
4441.66    27784.000000
4443.28    27376.210000
4444.91    27900.190000
4446.53    28106.050000
4448.16    28526.800000
4449.78    28058.630000
4451.40    27819.920000
4453.03    28252.430000
4454.65    28376.310000
4456.28    27724.600000
4457.90    27864.980000
4459.52    28243.950000
4461.15    28880.730000
4462.77    27609.820000
4464.40    27933.760000
4466.02    27756.750000
4467.65    28002.060000
4469.27    28875.070000
4470.89    28617.340000
4472.52    27916.950000
4474.14    28515.960000
4475.77    30228.960000
4477.39    29973.780000
4479.01    29472.110000
4480.64    29945.440000
4482.26    29553.470000
4483.89    28002.000000
4485.51    27389.280000
4487.13    26774.740000
4488.76    25707.960000
4490.38    26150.240000
4492.01    26973.120000
4493.63    26866.530000
4495.25    27225.040000
4496.88    27151.130000
4498.50    28258.270000
4500.13    29195.410000
4501.75    29211.820000
4503.38    30077.870000
4505.00    30387.110000
4506.62    29832.870000
4508.25    29649.150000
4509.87    29225.360000
4511.49    30274.140000
4513.12    31026.470000
4514.74    30666.630000
4516.37    30846.790000
4517.99    30285.040000
4519.61    29891.710000
4521.24    30196.480000
4522.86    29697.480000
4524.49    28583.040000
4526.11    28032.990000
4527.73    29100.580000
4529.36    31071.560000
4530.98    32186.040000
4532.61    32292.630000
4534.23    32372.100000
4535.85    32283.500000
4537.48    32451.720000
4539.10    32081.370000
4540.73    32268.240000
4542.35    32845.890000
4543.98    31485.130000
4545.60    30617.710000
4547.22    31785.240000
4548.85    32480.050000
4550.47    31010.940000
4552.10    31339.610000
4553.72    30722.850000
4555.34    29020.400000
4556.97    28159.670000
4558.59    27376.570000
4560.22    27431.880000
4561.84    26970.550000
4563.46    27309.360000
4565.09    27785.000000
4566.71    28289.190000
4568.34    29647.260000
4569.96    30230.840000
4571.58    30047.470000
4573.21    29841.970000
4574.83    28520.980000
4576.46    29176.340000
4578.08    29736.480000
4579.70    28051.040000
4581.33    28375.390000
4582.95    29920.770000
4584.58    29807.300000
4586.20    31489.270000
4587.82    32130.760000
4589.45    31982.610000
4591.07    32170.850000
4592.70    32197.470000
4594.32    33037.470000
4595.94    32376.190000
4597.57    32626.090000
4599.19    32354.930000
4600.82    32442.340000
4602.44    33271.280000
4604.06    31691.530000
4605.69    32333.150000
4607.31    31507.130000
4608.94    30698.530000
4610.56    30698.890000
4612.19    31075.850000
4613.81    30465.900000
4615.43    29516.000000
4617.06    30956.040000
4618.68    30923.480000
4620.31    30690.310000
4621.93    30869.710000
4623.55    30004.790000
4625.18    30646.590000
4626.80    30942.440000
4628.43    29258.650000
4630.05    30316.360000
4631.67    30431.500000
4633.30    30479.460000
4634.92    30368.990000
4636.55    31196.470000
4638.17    31096.860000
4639.79    31457.830000
4641.42    32913.360000
4643.04    33879.560000
4644.67    32284.860000
4646.29    33224.620000
4647.91    33429.860000
4649.54    33870.110000
4651.16    33981.630000
4652.79    32249.150000
4654.41    33695.930000
4656.03    32945.740000
4657.66    32950.400000
4659.28    32435.800000
4660.91    32965.210000
4662.53    33299.600000
4664.15    32261.710000
4665.78    31184.870000
4667.40    31680.210000
4669.03    29676.420000
4670.65    31743.220000
4672.27    30279.780000
4673.90    30274.360000
4675.52    29152.280000
4677.15    28648.130000
4678.77    29004.470000
4680.40    28532.730000
4682.02    28761.950000
4683.64    30324.210000
4685.27    30547.220000
4686.89    29746.240000
4688.52    32665.740000
4690.14    31187.890000
4691.76    30844.510000
4693.39    29523.440000
4695.01    29505.590000
4696.64    29288.090000
4698.26    28453.250000
4699.88    27182.340000
4701.51    27670.490000
4703.13    28597.650000
4704.76    27341.020000
4706.38    30187.520000
4708.00    29924.920000
4709.63    30180.900000
4711.25    29065.650000
4712.88    28762.970000
4714.50    29036.540000
4716.12    28860.870000
4717.75    29838.460000
4719.37    29876.030000
4721.00    29093.960000
4722.62    28452.630000
4724.24    28094.050000
4725.87    28438.120000
4727.49    29089.320000
4729.12    28368.890000
4730.74    27788.070000
4732.36    28932.420000
4733.99    28222.480000
4735.61    27029.690000
4737.24    27868.440000
4738.86    27808.910000
4740.48    28788.480000
4742.11    28219.300000
4743.73    30050.660000
4745.36    29477.300000
4746.98    28399.740000
4748.60    31044.210000
4750.23    31910.570000
4751.85    31331.110000
4753.48    32611.100000
4755.10    31078.710000
4756.73    32301.620000
4758.35    31236.030000
4759.97    30928.370000
4761.60    29714.800000
4763.22    29181.460000
4764.85    29149.140000
4766.47    29835.150000
4768.09    29624.140000
4769.72    31203.630000
4771.34    30173.760000
4772.97    31123.440000
4774.59    31753.220000
4776.21    32642.210000
4777.84    31900.080000
4779.46    31876.530000
4781.09    30738.730000
4782.71    31505.870000
4784.33    30641.710000
4785.96    29857.790000
4787.58    30741.020000
4789.21    30331.410000
4790.83    30449.110000
4792.45    31225.960000
4794.08    30262.220000
4795.70    30208.990000
4797.33    30329.170000
4798.95    29640.400000
4800.57    29742.460000
4802.20    29975.210000
4803.82    32330.820000
4805.45    32809.000000
4807.07    31458.370000
4808.69    32178.840000
4810.32    32726.800000
4811.94    32240.440000
4813.57    31753.970000
4815.19    29705.630000
4816.81    29744.750000
4818.44    31124.790000
4820.06    30764.870000
4821.69    30679.290000
4823.31    32198.680000
4824.94    32070.930000
4826.56    32975.830000
4828.18    32946.070000
4829.81    32321.810000
4831.43    32084.460000
4833.06    33158.920000
4834.68    33220.590000
4836.30    32706.810000
4837.93    30140.510000
4839.55    30661.150000
4841.18    30906.250000
4842.80    31575.580000
4844.42    32825.470000
4846.05    31349.820000
4847.67    32129.200000
4849.30    31035.240000
4850.92    32379.160000
4852.54    33045.000000
4854.17    31636.210000
4855.79    31402.420000
4857.42    30808.620000
4859.04    31376.120000
4860.66    31720.270000
4862.29    30961.950000
4863.91    30911.180000
4865.54    31137.910000
4867.16    30950.250000
4868.78    29753.740000
4870.41    30708.850000
4872.03    31312.340000
4873.66    30202.510000
4875.28    30504.300000
4876.90    31587.400000
4878.53    31040.900000
4880.15    30691.970000
4881.78    30885.200000
4883.40    30075.690000
4885.02    28468.860000
4886.65    28470.370000
4888.27    28696.200000
4889.90    27090.820000
4891.52    25579.120000
4893.15    26144.490000
4894.77    25182.670000
4896.39    25119.390000
4898.02    25958.610000
4899.64    26657.550000
4901.27    27541.510000
4902.89    26928.720000
4904.51    27335.520000
4906.14    27479.680000
4907.76    28422.190000
4909.39    28588.980000
4911.01    28726.050000
4912.63    30207.820000
4914.26    30201.230000
4915.88    29117.350000
4917.51    29238.230000
4919.13    28654.350000
4920.75    28392.650000
4922.38    28717.140000
4924.00    29584.140000
4925.63    30075.410000
4927.25    30254.490000
4928.87    31283.490000
4930.50    31511.770000
4932.12    30717.370000
4933.75    30782.230000
4935.37    32549.050000
4936.99    31789.380000
4938.62    30853.370000
4940.24    31782.240000
4941.87    31010.700000
4943.49    30875.540000
4945.11    31101.090000
4946.74    30571.980000
4948.36    30481.520000
4949.99    29917.160000
4951.61    29754.200000
4953.23    28579.920000
4954.86    28593.610000
4956.48    29313.820000
4958.11    29816.650000
4959.73    30952.690000
4961.35    30129.040000
4962.98    30914.320000
4964.60    32267.130000
4966.23    32376.520000
4967.85    30899.350000
4969.48    30739.260000
4971.10    31173.850000
4972.72    30456.650000
4974.35    31064.020000
4975.97    31457.100000
4977.60    32592.840000
4979.22    32438.650000
4980.84    31692.820000
4982.47    32841.380000
4984.09    33334.000000
4985.72    32635.500000
4987.34    31759.110000
4988.96    30512.040000
4990.59    30356.420000
4992.21    29948.490000
4993.84    29825.210000
4995.46    30838.670000
4997.08    30705.410000
4998.71    30436.630000
5000.33    30497.120000
5001.96    29726.170000
5003.58    29542.660000
5005.20    28941.290000
5006.83    29708.810000
5008.45    30317.410000
5010.08    30133.620000
5011.70    29517.470000
5013.32    29109.520000
5014.95    28435.710000
5016.57    27692.670000
5018.20    27666.150000
5019.82    28381.870000
5021.44    28122.290000
5023.07    29060.050000
5024.69    29644.250000
5026.32    29268.200000
5027.94    28205.860000
5029.56    28334.770000
5031.19    29439.050000
5032.81    28496.720000
5034.44    27675.820000
5036.06    26596.770000
5037.69    27236.840000
5039.31    27411.080000
5040.93    25480.760000
5042.56    26280.850000
5044.18    27397.790000
5045.81    27096.890000
5047.43    26242.500000
5049.05    26653.080000
5050.68    27023.330000
5052.30    26113.910000
5053.93    27035.210000
5055.55    27483.780000
5057.17    26932.600000
5058.80    27212.840000
5060.42    27941.000000
5062.05    28567.870000
5063.67    29406.540000
5065.29    30265.460000
5066.92    28589.010000
5068.54    28333.450000
5070.17    28264.000000
5071.79    27348.270000
5073.41    25876.860000
5075.04    25609.890000
5076.66    26322.450000
5078.29    27633.840000
5079.91    28488.530000
5081.53    28375.300000
5083.16    27874.870000
5084.78    27792.640000
5086.41    28200.010000
5088.03    27907.050000
5089.65    28068.690000
5091.28    29653.460000
5092.90    30469.700000
5094.53    30086.370000
5096.15    30972.260000
5097.77    31131.350000
5099.40    29188.230000
5101.02    28194.570000
5102.65    28212.750000
5104.27    28505.070000
5105.90    28147.080000
5107.52    28416.200000
5109.14    28289.140000
5110.77    26616.320000
5112.39    26295.010000
5114.02    26548.880000
5115.64    26308.940000
5117.26    26582.080000
5118.89    26866.200000
5120.51    26792.800000
5122.14    28269.050000
5123.76    28621.420000
5125.38    27682.290000
5127.01    28282.700000
5128.63    29001.650000
5130.26    29317.270000
5131.88    28369.380000
5133.50    27509.460000
5135.13    27062.710000
5136.75    26872.380000
5138.38    27828.860000
5140.00    27130.630000
5141.62    27349.160000
5143.25    27054.480000
5144.87    27286.020000
5146.50    28418.100000
5148.12    28761.880000
5149.74    29722.740000
5151.37    28991.220000
5152.99    28133.470000
5154.62    27581.120000
5156.24    27115.480000
5157.86    26836.550000
5159.49    26201.350000
5161.11    26947.280000
5162.74    26669.020000
5164.36    26559.290000
5165.98    26420.700000
5167.61    28058.660000
5169.23    28360.510000
5170.86    27579.120000
5172.48    27052.220000
5174.10    27500.590000
5175.73    25985.560000
5177.35    25873.920000
5178.98    26236.340000
5180.60    26340.200000
5182.23    26380.280000
5183.85    26642.170000
5185.47    26067.860000
5187.10    26360.560000
5188.72    27203.140000
5190.35    27314.060000
5191.97    27036.690000
5193.59    25788.480000
5195.22    25987.740000
5196.84    26058.570000
5198.47    24403.040000
5200.09    22245.440000
5201.71    21055.530000
5203.34    20146.160000
5204.96    20610.690000
5206.59    21804.030000
5208.21    21826.700000
5209.83    22857.390000
5211.46    24023.570000
5213.08    23520.740000
5214.71    23128.670000
5216.33    22652.860000
5217.95    22711.950000
5219.58    22612.540000
5221.20    23319.890000
5222.83    23945.370000
5224.45    25034.650000
5226.07    25959.980000
5227.70    25688.050000
5229.32    26188.820000
5230.95    26768.610000
5232.57    26801.460000
5234.19    27170.700000
5235.82    27610.880000
5237.44    28595.880000
5239.07    27352.850000
5240.69    25711.000000
5242.31    25748.030000
5243.94    25160.250000
5245.56    26193.120000
5247.19    26971.130000
5248.81    27135.930000
5250.44    28397.740000
5252.06    29216.500000
5253.68    28601.860000
5255.31    28113.680000
5256.93    28280.610000
5258.56    26561.800000
5260.18    26251.360000
5261.80    27499.930000
5263.43    27180.690000
5265.05    27546.030000
5266.68    27898.120000
5268.30    27247.080000
5269.92    28364.100000
5271.55    29388.290000
5273.17    29967.730000
5274.80    30694.600000
5276.42    29454.490000
5278.04    28779.920000
5279.67    29308.370000
5281.29    29639.810000
5282.91    28808.420000
5284.54    27868.960000
5286.16    28370.070000
5287.79    28292.130000
5289.41    29245.800000
5291.04    29243.650000
5292.66    28209.020000
5294.28    27742.960000
5295.91    27257.180000
5297.53    26663.420000
5299.16    26157.030000
5300.78    25682.080000
5302.40    25931.490000
5304.03    26190.720000
5305.65    25164.080000
5307.28    26077.790000
5308.90    27418.400000
5310.52    27524.160000
5312.15    28223.680000
5313.77    28484.770000
5315.40    29225.040000
5317.02    29042.840000
5318.64    30575.980000
5320.27    30874.910000
5321.89    29799.870000
5323.52    29288.130000
5325.14    30154.520000
5326.76    31603.830000
5328.39    31307.160000
5330.01    31229.600000
5331.64    30128.720000
5333.26    28958.300000
5334.89    28794.960000
5336.51    29106.880000
5338.13    30419.440000
5339.76    30393.640000
5341.38    29924.820000
5343.01    30871.910000
5344.63    31851.710000
5346.25    31403.960000
5347.88    30872.030000
5349.50    32033.370000
5351.12    30747.380000
5352.75    30809.790000
5354.37    30379.700000
5356.00    30352.790000
5357.62    29853.390000
5359.24    29512.480000
5360.87    28916.790000
5362.49    29140.100000
5364.12    27183.630000
5365.74    27785.870000
5367.36    28823.300000
5368.99    28376.820000
5370.61    29400.760000
5372.24    29788.830000
5373.86    30661.430000
5375.49    28925.400000
5377.11    29557.430000
5378.73    29896.460000
5380.36    30025.370000
5381.98    30618.410000
5383.61    29930.520000
5385.23    29869.120000
5386.85    30688.080000
5388.48    31031.940000
5390.10    31601.690000
5391.73    32178.650000
5393.35    31675.630000
5394.97    32429.910000
5396.60    32477.660000
5398.22    30927.230000
5399.85    32303.820000
5401.47    30007.330000
5403.09    29222.750000
5404.72    28914.680000
5406.34    29290.770000
5407.97    28857.860000
5409.59    29415.920000
5411.21    29817.400000
5412.84    30017.640000
5414.46    30649.200000
5416.09    31967.100000
5417.71    30275.860000
5419.34    30675.860000
5420.96    30973.650000
5422.58    30116.320000
5424.21    30260.360000
5425.83    30134.690000
5427.45    29528.190000
5429.08    28536.220000
5430.70    28132.630000
5432.33    28884.630000
5433.95    29070.770000
5435.57    28736.050000
5437.20    27942.730000
5438.82    28864.590000
5440.45    28133.970000
5442.07    28057.870000
5443.69    27320.040000
5445.32    27696.580000
5446.94    28780.530000
5448.57    29028.970000
5450.19    29852.400000
5451.81    30861.690000
5453.44    30619.910000
5455.06    31674.490000
5456.69    30480.690000
5458.31    29730.150000
5459.94    29037.060000
5461.56    30788.550000
5463.18    30478.660000
5464.81    29938.370000
5466.43    29983.700000
5468.06    30457.550000
5469.68    28568.710000
5471.30    28603.720000
5472.93    29437.200000
5474.55    30416.120000
5476.18    31159.950000
5477.80    30016.700000
5479.42    30366.370000
5481.05    30162.040000
5482.67    30210.710000
5484.30    30304.440000
5485.92    29902.250000
5487.54    30464.710000
5489.17    30664.530000
5490.79    30334.460000
5492.42    29740.910000
5494.04    30342.350000
5495.66    30440.300000
5497.29    29964.310000
5498.91    31131.030000
5500.54    29735.350000
5502.16    29595.620000
5503.78    30135.250000
5505.41    29567.000000
5507.03    28795.620000
5508.66    29196.680000
5510.28    30353.320000
5511.90    29245.660000
5513.53    28375.190000
5515.15    29053.940000
5516.78    29162.890000
5518.40    29035.300000
5520.02    29059.940000
5521.65    29188.140000
5523.27    30321.850000
5524.90    30173.710000
5526.52    30049.050000
5528.15    30280.770000
5529.77    30141.310000
5531.39    30324.260000
5533.02    30108.280000
5534.64    29671.500000
5536.27    30325.830000
5537.89    30247.380000
5539.51    30253.620000
5541.14    29834.110000
5542.76    29433.780000
5544.39    29539.670000
5546.01    29301.100000
5547.63    28777.610000
5549.26    29081.300000
5550.88    29426.640000
5552.51    29331.970000
5554.13    29185.680000
5555.75    29435.340000
5557.38    30527.740000
5559.00    30538.950000
5560.63    30843.980000
5562.25    31846.960000
5563.88    30291.880000
5565.50    29085.140000
5567.12    29201.100000
5568.75    29404.560000
5570.37    30228.720000
5571.99    30844.230000
5573.62    32090.750000
5575.24    32249.070000
5576.87    30753.300000
5578.49    29801.400000
5580.11    30218.180000
5581.74    31289.990000
5583.36    30996.650000
5584.99    31224.150000
5586.61    31964.440000
5588.23    32234.800000
5589.86    30743.810000
5591.48    30830.150000
5593.11    30448.740000
5594.73    30896.670000
5596.35    30405.850000
5597.98    29988.920000
5599.60    29787.950000
5601.23    29351.580000
5602.85    29497.420000
5604.48    29853.030000
5606.10    30741.110000
5607.72    30095.170000
5609.35    29763.820000
5610.97    29608.750000
5612.60    30089.520000
5614.22    29731.370000
5615.84    29761.320000
5617.47    29846.040000
5619.09    29695.310000
5620.72    28895.760000
5622.34    28662.300000
5623.96    28680.760000
5625.59    28684.740000
5627.21    28036.250000
5628.84    27871.140000
5630.46    28102.890000
5632.08    28851.080000
5633.71    28874.680000
5635.33    28785.210000
5636.96    28615.680000
5638.58    28944.870000
5640.20    29223.060000
5641.83    29495.740000
5643.45    29889.060000
5645.08    29408.200000
5646.70    29421.720000
5648.32    29505.330000
5649.95    29739.960000
5651.57    29269.370000
5653.20    29136.470000
5654.82    29025.520000
5656.44    28699.950000
5658.07    28688.030000
5659.69    28842.020000
5661.32    29024.510000
5662.94    29014.550000
5664.56    29217.590000
5666.19    29323.170000
5667.81    29332.970000
5669.44    29302.070000
5671.06    29287.790000
5672.69    29320.600000
5674.31    29397.210000
5675.93    29212.280000
5677.56    29158.570000
5679.18    29093.000000
5680.81    29070.180000
5682.43    28734.610000
5684.05    28878.430000
5685.68    29132.430000
5687.30    29672.830000
5688.93    29009.530000
5690.55    28673.150000
5692.17    28410.040000
5693.80    28205.270000
5695.42    28197.130000
5697.05    28280.140000
5698.67    28343.160000
5700.29    28159.170000
5701.92    28624.400000
5703.54    28814.480000
5705.17    28810.860000
5706.79    29736.240000
5708.41    29446.180000
5710.04    29385.340000
5711.66    29555.570000
5713.29    29088.520000
5714.91    29729.610000
5716.53    30155.870000
5718.16    30297.110000
5719.78    29611.510000
5721.41    29360.310000
5723.03    29098.120000
5724.65    28748.960000
5726.28    29630.510000
5727.90    29700.840000
5729.53    29645.010000
5731.15    29934.110000
5732.77    29726.270000
5734.40    29378.890000
5736.02    29026.910000
5737.65    29315.670000
5739.27    28849.010000
5740.90    28453.290000
5742.52    28043.040000
5744.14    28119.970000
5745.77    27963.170000
5747.39    28013.630000
5749.02    28266.030000
5750.64    28635.640000
5752.26    28353.640000
5753.89    28619.060000
5755.51    29846.190000
5757.14    29924.910000
5758.76    30247.970000
5760.38    30617.290000
5762.01    31134.800000
5763.63    30142.680000
5765.26    29901.710000
5766.88    29745.370000
5768.50    29522.940000
5770.13    29591.730000
5771.75    29791.510000
5773.38    30011.010000
5775.00    30301.370000
5776.62    30103.390000
5778.25    29764.180000
5779.87    29333.960000
5781.50    29900.500000
5783.12    29894.210000
5784.74    29857.660000
5786.37    29809.100000
5787.99    29337.610000
5789.62    29663.400000
5791.24    29826.870000
5792.86    29863.890000
5794.49    29560.210000
5796.11    29283.860000
5797.74    29352.010000
5799.36    30261.070000
5800.98    30324.460000
5802.61    30112.430000
5804.23    29959.360000
5805.86    30200.780000
5807.48    29874.120000
5809.10    29900.050000
5810.73    29987.280000
5812.35    30081.570000
5813.98    29883.340000
5815.60    29537.420000
5817.23    29051.100000
5818.85    28366.810000
5820.47    28346.410000
5822.10    28138.460000
5823.72    27729.380000
5825.35    28594.130000
5826.97    28378.850000
5828.59    28482.620000
5830.22    28961.310000
5831.84    29416.130000
5833.47    29363.160000
5835.09    29552.620000
5836.71    30365.200000
5838.34    29754.160000
5839.96    30058.090000
5841.59    30348.820000
5843.21    30376.220000
5844.83    30014.280000
5846.46    29802.220000
5848.08    29728.830000
5849.71    30474.120000
5851.33    30592.820000
5852.95    30373.820000
5854.58    30073.390000
5856.20    30855.540000
5857.83    30173.410000
5859.45    30157.110000
5861.07    30511.220000
5862.70    31093.760000
5864.32    30906.140000
5865.95    30843.290000
5867.57    30900.320000
5869.19    30609.140000
5870.82    30582.070000
5872.44    30475.420000
5874.07    30252.090000
5875.69    29934.110000
5877.31    30351.000000
5878.94    30426.440000
5880.56    29466.700000
5882.19    29128.590000
5883.81    29015.320000
5885.44    29007.190000
5887.06    29431.400000
5888.68    28549.740000
5890.31    27965.090000
5891.93    27566.400000
5893.56    28472.000000
5895.18    27472.710000
5896.80    27457.790000
5898.43    27911.800000
5900.05    27481.160000
5901.68    27506.340000
5903.30    27683.150000
5904.92    28021.090000
5906.55    28043.050000
5908.17    28127.940000
5909.80    28333.800000
5911.42    28820.500000
5913.04    28363.230000
5914.67    27881.190000
5916.29    27451.860000
5917.92    27231.510000
5919.54    26663.620000
5921.16    25992.310000
5922.79    25262.490000
5924.41    24452.420000
5926.04    23165.710000
5927.66    22357.640000
5929.28    21634.740000
5930.91    20832.460000
5932.53    20583.440000
5934.16    20789.200000
5935.78    21210.660000
5937.40    21792.500000
5939.03    22762.070000
5940.65    23726.310000
5942.28    24760.380000
5943.90    25570.170000
5945.52    26195.070000
5947.15    26527.410000
5948.77    26573.910000
5950.40    27232.890000
5952.02    27314.910000
5953.65    27549.850000
5955.27    28304.580000
5956.89    27639.840000
5958.52    27724.940000
5960.14    27815.720000
5961.77    27704.820000
5963.39    27622.540000
5965.01    27749.090000
5966.64    27932.220000
5968.26    28309.130000
5969.89    28187.490000
5971.51    28072.050000
5973.13    27913.550000
5974.76    27748.040000
5976.38    28253.910000
5978.01    28525.790000
5979.63    28595.190000
5981.25    28299.880000
5982.88    28020.220000
5984.50    27935.040000
5986.13    28082.530000
5987.75    27894.090000
5989.37    27932.170000
5991.00    27997.390000
5992.62    28183.900000
5994.25    27810.590000
5995.87    28054.730000
5997.49    28327.370000
5999.12    28583.450000
6000.74    28358.820000
6002.37    28350.440000
6003.99    28364.860000
6005.61    28408.690000
6007.24    28257.920000
6008.86    28507.020000
6010.49    28844.500000
6012.11    28927.490000
6013.73    28630.780000
6015.36    28457.290000
6016.98    28303.920000
6018.61    28373.880000
6020.23    28127.770000
6021.85    28019.570000
6023.48    28039.760000
6025.10    27819.680000
6026.73    28007.330000
6028.35    28251.000000
6029.98    28708.080000
6031.60    28580.180000
6033.22    28379.050000
6034.85    28131.360000
6036.47    27848.730000
6038.10    27730.890000
6039.72    28071.480000
6041.34    28399.370000
6042.97    28404.390000
6044.59    28148.850000
6046.22    27893.980000
6047.84    27621.160000
6049.46    27562.670000
6051.09    27463.180000
6052.71    27339.270000
6054.34    27183.450000
6055.96    27304.080000
6057.58    27451.370000
6059.21    27489.410000
6060.83    27441.360000
6062.46    27144.050000
6064.08    27684.650000
6065.70    28038.130000
6067.33    28211.070000
6068.95    28397.560000
6070.58    28378.710000
6072.20    28379.370000
6073.82    28558.600000
6075.45    28845.400000
6077.07    28875.540000
6078.70    28914.820000
6080.32    29343.570000
6081.94    29216.340000
6083.57    29222.050000
6085.19    29228.460000
6086.82    29204.630000
6088.44    28830.080000
6090.06    28797.060000
6091.69    28891.870000
6093.31    29087.230000
6094.94    28616.770000
6096.56    28400.380000
6098.19    28406.760000
6099.81    28333.240000
6101.43    28219.580000
6103.06    28331.410000
6104.68    28827.800000
6106.31    28876.570000
6107.93    28906.580000
6109.55    29060.640000
6111.18    29585.220000
6112.80    29194.790000
6114.43    29082.970000
6116.05    28948.300000
6117.67    28702.510000
6119.30    28263.780000
6120.92    28137.760000
6122.55    28035.170000
6124.17    27667.630000
6125.79    27594.130000
6127.42    27700.250000
6129.04    27830.680000
6130.67    27705.850000
6132.29    27401.980000
6133.91    27415.990000
6135.54    27602.260000
6137.16    28142.160000
6138.79    27754.000000
6140.41    27421.190000
6142.03    27106.440000
6143.66    27450.410000
6145.28    27889.970000
6146.91    28118.740000
6148.53    28073.990000
6150.15    28090.730000
6151.78    28015.710000
6153.40    28022.500000
6155.03    28415.120000
6156.65    27605.620000
6158.27    27441.040000
6159.90    27405.090000
6161.52    27451.950000
6163.15    27376.070000
6164.77    27445.910000
6166.40    27516.940000
6168.02    27157.800000
6169.64    26958.770000
6171.27    26927.750000
6172.89    26948.140000
6174.52    26873.590000
6176.14    26459.740000
6177.76    26306.110000
6179.39    26398.400000
6181.01    26666.120000
6182.64    26850.060000
6184.26    27079.040000
6185.88    27488.920000
6187.51    27529.600000
6189.13    27411.750000
6190.76    27275.700000
6192.38    27238.580000
6194.00    27020.840000
6195.63    26531.800000
6197.25    25961.590000
6198.88    25385.660000
6200.50    25188.350000
6202.12    25023.940000
6203.75    24866.590000
6205.37    24979.370000
6207.00    24865.790000
6208.62    25038.500000
6210.24    25322.870000
6211.87    25466.140000
6213.49    25626.860000
6215.12    25785.890000
6216.74    25966.380000
6218.36    26491.290000
6219.99    26315.070000
6221.61    26350.770000
6223.24    26785.300000
6224.86    26476.950000
6226.48    26159.070000
6228.11    25956.460000
6229.73    26084.860000
6231.36    25744.950000
6232.98    25777.260000
6234.60    25800.950000
6236.23    25591.700000
6237.85    26047.190000
6239.48    26142.150000
6241.10    26094.800000
6242.73    25989.030000
6244.35    26002.150000
6245.97    26102.900000
6247.60    26178.660000
6249.22    25698.340000
6250.85    25577.210000
6252.47    25711.270000
6254.09    26021.120000
6255.72    25420.350000
6257.34    25173.710000
6258.97    25226.380000
6260.59    25690.850000
6262.21    24916.900000
6263.84    24473.700000
6265.46    24329.480000
6267.09    24819.770000
6268.71    24396.240000
6270.33    24373.600000
6271.96    24310.920000
6273.58    24011.680000
6275.21    23605.760000
6276.83    23308.000000
6278.45    23089.940000
6280.08    23420.240000
6281.70    23280.470000
6283.33    23309.210000
6284.95    23380.590000
6286.57    23471.880000
6288.20    23720.230000
6289.82    23846.230000
6291.45    23861.570000
6293.07    24444.860000
6294.69    24242.160000
6296.32    24500.250000
6297.94    25295.510000
6299.57    25633.740000
6301.19    25395.980000
6302.81    25273.170000
6304.44    25428.370000
6306.06    25054.460000
6307.69    25127.200000
6309.31    25216.490000
6310.94    25298.370000
6312.56    25321.820000
6314.18    25264.090000
6315.81    25179.070000
6317.43    25192.790000
6319.06    25022.130000
6320.68    24939.530000
6322.30    24873.880000
6323.93    25091.460000
6325.55    24904.610000
6327.18    25139.910000
6328.80    25594.870000
6330.42    25761.250000
6332.05    26202.670000
6333.67    26273.200000
6335.30    25984.670000
6336.92    25625.700000
6338.54    25564.670000
6340.17    25523.310000
6341.79    25568.530000
6343.41    24890.780000
6345.04    25000.490000
6346.66    25202.700000
6348.29    25590.350000
6349.91    25290.270000
6351.54    25146.920000
6353.16    25057.120000
6354.78    25195.250000
6356.41    24999.930000
6358.03    25013.410000
6359.66    25136.570000
6361.28    25838.300000
6362.90    25420.220000
6364.53    25415.320000
6366.15    25610.590000
6367.78    26230.740000
6369.40    26048.820000
6371.02    25963.040000
6372.65    25940.020000
6374.27    25738.250000
6375.90    25410.510000
6377.52    25276.400000
6379.15    25478.410000
6380.77    25542.120000
6382.39    25359.400000
6384.02    25155.510000
6385.64    25003.140000
6387.27    25005.840000
6388.89    25118.860000
6390.51    25219.130000
6392.14    25363.670000
6393.76    25136.870000
6395.39    25146.260000
6397.01    25203.010000
6398.63    25320.300000
6400.26    24539.450000
6401.88    24236.050000
6403.51    24130.880000
6405.13    24418.540000
6406.75    24397.320000
6408.38    24559.680000
6410.00    24822.470000
6411.62    25276.290000
6413.25    25315.370000
6414.87    25452.280000
6416.50    25734.850000
6418.12    25838.960000
6419.74    25763.540000
6421.37    25728.770000
6422.99    25872.720000
6424.62    25792.130000
6426.24    25785.170000
6427.86    25864.580000
6429.49    26308.270000
6431.11    25775.110000
6432.74    25423.610000
6434.36    25199.900000
6435.99    25650.590000
6437.61    25508.020000
6439.23    25517.820000
6440.86    25548.220000
6442.48    25646.710000
6444.11    25481.900000
6445.73    25527.250000
6447.35    25662.660000
6448.98    25378.760000
6450.60    25029.300000
6452.23    24863.580000
6453.85    24876.940000
6455.48    24950.280000
6457.10    24820.200000
6458.72    24649.760000
6460.35    24502.550000
6461.97    24925.960000
6463.60    24874.900000
6465.22    24848.860000
6466.84    25145.330000
6468.47    25410.490000
6470.09    25329.740000
6471.72    25179.670000
6473.34    25201.490000
6474.96    24757.820000
6476.59    24727.850000
6478.21    24832.950000
6479.84    25091.170000
6481.46    24933.280000
6483.08    24887.950000
6484.71    24851.810000
6486.33    24964.300000
6487.95    24884.860000
6489.58    24792.510000
6491.20    24680.360000
6492.83    24982.810000
6494.45    24660.520000
6496.07    24477.030000
6497.70    24589.100000
6499.32    25234.910000
6500.95    25388.370000
6502.57    25565.320000
6504.19    26029.820000
6505.82    25832.140000
6507.44    25518.270000
6509.07    25209.290000
6510.69    25179.760000
6512.32    25419.230000
6513.94    25323.570000
6515.56    25115.730000
6517.19    25144.760000
6518.81    24982.710000
6520.44    24943.560000
6522.06    24958.310000
6523.68    25600.380000
6525.31    25336.120000
6526.93    25168.380000
6528.56    25100.350000
6530.18    24468.580000
6531.81    24489.860000
6533.43    24521.210000
6535.05    24628.930000
6536.68    23803.430000
6538.30    23527.720000
6539.93    23313.290000
6541.55    23192.800000
6543.17    23159.810000
6544.80    23578.820000
6546.42    24066.640000
6548.05    24675.460000
6549.67    24148.380000
6551.29    24401.140000
6552.92    24818.020000
6554.54    25092.050000
6556.16    25065.150000
6557.79    25130.290000
6559.41    25207.050000
6561.04    25304.250000
6562.66    24758.100000
6564.28    24862.070000
6565.91    25405.560000
6567.53    25378.580000
6569.16    25274.730000
6570.78    25266.810000
6572.40    25360.770000
6574.03    25089.410000
6575.65    25347.300000
6577.28    25514.820000
6578.90    25554.390000
6580.52    25023.580000
6582.15    24760.920000
6583.77    24721.180000
6585.40    25388.370000
6587.02    24846.830000
6588.65    24719.860000
6590.27    24670.830000
6591.89    24654.560000
6593.52    24269.230000
6595.14    24095.130000
6596.77    24000.210000
6598.39    24079.870000
6600.01    23345.860000
6601.64    22994.130000
6603.26    22816.050000
6604.89    22009.360000
6606.51    22063.350000
6608.13    22242.480000
6609.76    22571.170000
6611.38    22905.650000
6613.01    22835.800000
6614.63    22834.130000
6616.26    23047.100000
6617.88    23653.700000
6619.50    24167.880000
6621.13    24477.370000
6622.75    24372.440000
6624.38    24866.940000
6626.00    25034.610000
6627.62    25061.880000
6629.25    24876.700000
6630.87    24856.230000
6632.49    24821.790000
6634.12    24777.700000
6635.74    24998.500000
6637.37    24682.570000
6638.99    24572.660000
6640.61    24540.860000
6642.24    24932.510000
6643.86    24847.350000
6645.49    24845.750000
6647.11    24926.840000
6648.73    24705.350000
6650.36    24448.900000
6651.98    24184.840000
6653.61    23949.140000
6655.23    24115.440000
6656.85    24480.340000
6658.48    24637.320000
6660.10    24321.130000
6661.73    24424.140000
6663.35    24641.720000
6664.98    24809.630000
6666.60    24723.640000
6668.22    24339.780000
6669.85    24139.270000
6671.47    23970.320000
6673.10    23868.570000
6674.72    23860.230000
6676.34    23889.600000
6677.97    23904.260000
6679.59    23934.600000
6681.22    23733.000000
6682.84    23674.060000
6684.46    23739.830000
6686.09    23973.420000
6687.71    23912.920000
6689.34    23870.890000
6690.96    23929.190000
6692.59    23562.170000
6694.21    23589.400000
6695.83    23676.620000
6697.46    23918.780000
6699.08    23537.770000
6700.70    23615.960000
6702.33    23696.650000
6703.95    23626.660000
6705.58    23283.910000
6707.20    23323.110000
6708.82    23463.710000
6710.45    23809.320000
6712.07    23783.230000
6713.70    23617.320000
6715.32    23361.320000
6716.94    23353.640000
6718.57    23143.350000
6720.19    23140.310000
6721.82    23245.160000
6723.44    23894.790000
6725.06    23780.860000
6726.69    23643.550000
6728.31    23448.870000
6729.94    23487.000000
6731.56    23320.560000
6733.19    23311.010000
6734.81    23666.270000
6736.43    23425.120000
6738.06    23272.580000
6739.68    23193.310000
6741.31    23396.000000
6742.93    23189.510000
6744.55    23109.550000
6746.18    23041.550000
6747.80    23021.630000
6749.43    23225.060000
6751.05    23301.960000
6752.67    23299.710000
6754.30    23386.530000
6755.92    22912.610000
6757.55    22743.700000
6759.17    22720.710000
6760.79    22744.260000
6762.42    22569.770000
6764.04    22637.250000
6765.67    22967.030000
6767.29    22962.920000
6768.91    22900.920000
6770.54    22671.040000
6772.16    22190.270000
6773.79    22578.080000
6775.41    22823.320000
6777.03    23021.480000
6778.66    23185.160000
6780.28    22978.470000
6781.91    22767.790000
6783.53    22628.960000
6785.15    22966.510000
6786.78    22874.440000
6788.40    22597.690000
6790.03    22267.030000
6791.65    22402.860000
6793.27    22376.380000
6794.90    22289.740000
6796.52    22139.020000
6798.15    22361.390000
6799.77    22557.860000
6801.40    22709.660000
6803.02    22817.630000
6804.64    22790.290000
6806.27    22668.000000
6807.89    22611.540000
6809.52    22717.550000
6811.14    22610.170000
6812.76    22358.270000
6814.39    22200.980000
6816.01    22367.950000
6817.64    22603.200000
6819.26    22663.350000
6820.88    22648.380000
6822.51    22600.850000
6824.13    22616.250000
6825.76    22815.990000
6827.38    22995.160000
6829.00    22742.570000
6830.63    22274.230000
6832.25    22213.120000
6833.88    22314.350000
6835.50    22261.380000
6837.12    22198.590000
6838.75    22256.780000
6840.37    22430.090000
6842.00    22207.750000
6843.62    22134.540000
6845.24    22079.620000
6846.87    22077.900000
6848.49    22114.390000
6850.12    22268.080000
6851.74    22319.580000
6853.36    22203.830000
6854.99    22053.780000
6856.61    22129.280000
6858.24    22218.650000
6859.86    22332.260000
6861.48    21973.560000
6863.11    21861.340000
6864.73    21745.920000
6866.36    21357.130000
6867.98    20704.140000
6869.60    20678.850000
6871.23    20853.730000
6872.85    20469.360000
6874.48    19802.690000
6876.10    19980.590000
6877.73    20737.400000
6879.35    20744.000000
6880.97    20489.450000
6882.60    20702.330000
6884.22    21489.540000
6885.85    21527.320000
6887.47    21929.860000
6889.09    22004.390000
6890.72    21505.120000
6892.34    20222.900000
6893.97    19784.750000
6895.59    19591.190000
6897.21    19882.350000
6898.84    20161.690000
6900.46    20759.690000
6902.09    21269.490000
6903.71    20975.770000
6905.33    20176.610000
6906.96    20135.890000
6908.58    20357.510000
6910.21    20453.850000
6911.83    20316.940000
6913.45    20385.930000
6915.08    20539.830000
6916.70    20638.550000
6918.33    20766.870000
6919.95    20798.250000
6921.57    20727.210000
6923.20    20562.710000
6924.82    20618.390000
6926.45    20706.430000
6928.07    20906.620000
6929.69    20632.940000
6931.32    20337.460000
6932.94    20171.410000
6934.57    20426.350000
6936.19    20364.550000
6937.81    20190.350000
6939.44    20055.620000
6941.06    20366.650000
6942.69    20440.930000
6944.31    20481.390000
6945.94    20518.600000
6947.56    20847.470000
6949.18    20740.190000
6950.81    20677.470000
6952.43    20604.240000
6954.06    20593.720000
6955.68    20425.290000
6957.30    20298.300000
6958.93    20220.110000
6960.55    20302.860000
6962.18    20691.640000
6963.80    20916.440000
6965.42    20964.240000
6967.05    20792.990000
6968.67    21137.820000
6970.30    21352.470000
6971.92    21231.540000
6973.54    21131.720000
6975.17    21067.980000
6976.79    20946.970000
6978.42    20657.380000
6980.04    20742.570000
6981.66    20854.440000
6983.29    20888.130000
6984.91    20517.000000
6986.54    20402.180000
6988.16    20348.040000
6989.78    20269.210000
6991.41    19807.920000
6993.03    19741.220000
6994.66    19836.350000
6996.28    20080.800000
6997.90    20016.680000
6999.53    20008.780000
7001.15    20039.570000
7002.78    20180.120000
7004.40    19860.420000
7006.02    19833.570000
7007.65    19927.120000
7009.27    20326.610000
7010.90    20528.420000
7012.52    20397.740000
7014.15    20225.940000
7015.77    20159.700000
7017.39    20106.630000
7019.02    20120.570000
7020.64    20101.210000
7022.27    19905.220000
7023.89    19717.020000
7025.51    19770.810000
7027.14    19905.340000
7028.76    19807.980000
7030.39    19918.060000
7032.01    20212.370000
7033.63    20617.850000
7035.26    20769.740000
7036.88    20455.860000
7038.51    20250.040000
7040.13    20140.820000
7041.75    20226.480000
7043.38    20256.090000
7045.00    20199.620000
7046.63    20037.040000
7048.25    19988.640000
7049.87    20045.030000
7051.50    20043.550000
7053.12    19918.530000
7054.75    19717.840000
7056.37    19710.860000
7057.99    19730.250000
7059.62    19769.180000
7061.24    19874.730000
7062.87    19780.880000
7064.49    19601.210000
7066.11    19665.570000
7067.74    19983.490000
7069.36    20070.130000
7070.99    19974.920000
7072.61    19881.710000
7074.23    19640.390000
7075.86    19570.750000
7077.48    19670.730000
7079.11    19931.310000
7080.73    19898.000000
7082.35    19950.860000
7083.98    20229.650000
7085.60    20400.870000
7087.23    20302.590000
7088.85    20228.320000
7090.48    20360.830000
7092.10    20150.510000
7093.72    20129.880000
7095.35    20123.540000
7096.97    20042.800000
7098.60    19662.310000
7100.22    19558.610000
7101.84    19508.500000
7103.47    19340.440000
7105.09    19088.170000
7106.72    18826.460000
7108.34    18522.840000
7109.96    18502.440000
7111.59    18718.800000
7113.21    18733.130000
7114.84    18570.030000
7116.46    18492.310000
7118.08    18615.580000
7119.71    18709.440000
7121.33    18824.570000
7122.96    19185.050000
7124.58    19184.330000
7126.20    19017.250000
7127.83    18565.060000
7129.45    18313.880000
7131.08    18214.560000
7132.70    18150.960000
7134.32    18206.000000
7135.95    18204.190000
7137.57    17885.920000
7139.20    17503.230000
7140.82    17469.890000
7142.44    17633.910000
7144.07    17624.130000
7145.69    17487.640000
7147.32    17117.870000
7148.94    17126.910000
7150.56    17208.410000
7152.19    17363.830000
7153.81    17203.970000
7155.44    17273.340000
7157.06    17268.880000
7158.69    17211.620000
7160.31    17396.200000
7161.93    17003.470000
7163.56    16816.410000
7165.18    17150.630000
7166.81    17440.880000
7168.43    17124.730000
7170.05    16765.200000
7171.68    16612.540000
7173.30    15959.320000
7174.93    16153.270000
7176.55    16452.650000
7178.17    16118.310000
7179.80    16106.220000
7181.42    16031.810000
7183.05    15894.470000
7184.67    15704.990000
7186.29    16264.570000
7187.92    16440.650000
7189.54    16334.000000
7191.17    16720.610000
7192.79    16268.370000
7194.41    15988.180000
7196.04    15872.390000
7197.66    15785.530000
7199.29    16338.130000
7200.91    16515.300000
7202.53    15996.500000
7204.16    15566.490000
7205.78    15391.630000
7207.41    15454.490000
7209.03    16180.230000
7210.65    16346.870000
7212.28    16211.220000
7213.90    15928.200000
7215.53    15332.700000
7217.15    15796.340000
7218.77    16005.280000
7220.40    16087.620000
7222.02    15997.080000
7223.65    15941.130000
7225.27    15955.130000
7226.90    15975.110000
7228.52    15585.650000
7230.14    14986.140000
7231.77    14479.030000
7233.39    13999.730000
7235.02    13662.520000
7236.64    13858.800000
7238.26    13981.440000
7239.89    14006.460000
7241.51    13743.400000
7243.14    13936.060000
7244.76    14130.100000
7246.38    14271.360000
7248.01    14368.760000
7249.63    14307.760000
7251.26    14189.210000
7252.88    14050.270000
7254.50    14169.180000
7256.13    14280.410000
7257.75    14364.500000
7259.38    14356.720000
7261.00    14136.820000
7262.62    14070.510000
7264.25    14069.460000
7265.87    14250.330000
7267.50    14540.550000
7269.12    14718.350000
7270.74    14816.410000
7272.37    14677.610000
7273.99    14454.260000
7275.62    14300.810000
7277.24    14258.420000
7278.86    14798.850000
7280.49    15174.220000
7282.11    15501.380000
7283.74    15834.890000
7285.36    15298.290000
7286.98    14899.410000
7288.61    14575.040000
7290.23    14503.460000
7291.86    14303.730000
7293.48    14391.780000
7295.10    14591.580000
7296.73    15083.520000
7298.35    15082.300000
7299.98    14924.820000
7301.60    14658.970000
7303.23    14542.510000
7304.85    14551.780000
7306.47    14578.950000
7308.10    14630.860000
7309.72    14662.920000
7311.35    14715.620000
7312.97    14822.630000
7314.59    15051.520000
7316.22    14838.000000
7317.84    14885.990000
7319.47    15056.050000
7321.09    15534.220000
7322.71    15729.840000
7324.34    15814.460000
7325.96    15886.690000
7327.59    16042.430000
7329.21    15818.540000
7330.83    15547.060000
7332.46    15278.490000
7334.08    15236.580000
7335.71    15450.600000
7337.33    15704.750000
7338.95    15955.370000
7340.58    16048.440000
7342.20    15879.500000
7343.83    15861.900000
7345.45    15904.850000
7347.07    15894.970000
7348.70    16082.510000
7350.32    15989.100000
7351.95    15557.130000
7353.57    15779.550000
7355.19    15736.170000
7356.82    15664.030000
7358.44    15598.550000
7360.07    15812.250000
7361.69    15807.490000
7363.31    15773.870000
7364.94    15788.790000
7366.56    16074.700000
7368.19    16065.320000
7369.81    15975.090000
7371.44    15940.630000
7373.06    15738.050000
7374.68    15642.820000
7376.31    15627.600000
7377.93    16258.100000
7379.56    15890.750000
7381.18    15692.370000
7382.80    15571.740000
7384.43    16008.450000
7386.05    16305.360000
7387.68    16425.010000
7389.30    16393.460000
7390.92    16743.110000
7392.55    16325.240000
7394.17    16062.220000
7395.80    16108.110000
7397.42    16128.910000
7399.04    15947.440000
7400.67    15830.910000
7402.29    15983.340000
7403.92    15804.610000
7405.54    15931.610000
7407.16    16026.560000
7408.79    15793.250000
7410.41    15771.290000
7412.04    15749.510000
7413.66    15702.530000
7415.28    15680.570000
7416.91    15751.890000
7418.53    15839.930000
7420.16    15939.280000
7421.78    16530.440000
7423.40    15996.290000
7425.03    15874.720000
7426.65    16109.780000
7428.28    15987.280000
7429.90    15968.740000
7431.52    15958.380000
7433.15    16018.190000
7434.77    15855.850000
7436.40    15698.620000
7438.02    15571.760000
7439.65    15550.390000
7441.27    15791.330000
7442.89    15838.990000
7444.52    15845.010000
7446.14    15886.100000
7447.77    15709.160000
7449.39    15544.730000
7451.01    15443.740000
7452.64    15915.250000
7454.26    15669.860000
7455.89    15544.740000
7457.51    15469.560000
7459.13    15560.310000
7460.76    15500.800000
7462.38    15481.290000
7464.01    15477.410000
7465.63    15350.110000
7467.25    15455.620000
7468.88    15479.240000
7470.50    15411.030000
7472.12    15390.270000
7473.75    15731.260000
7475.37    15896.880000
7477.00    15721.570000
7478.62    15726.170000
7480.24    15648.640000
7481.87    15555.830000
7483.49    15527.080000
7485.12    15611.530000
7486.74    15483.830000
7488.37    15282.810000
7489.99    15083.940000
7491.61    15093.720000
7493.24    15167.890000
7494.86    15230.870000
7496.49    15028.380000
7498.11    14850.670000
7499.73    15031.240000
7501.36    15447.790000
7502.98    15459.220000
7504.61    15165.820000
7506.23    15082.090000
7507.85    15221.100000
7509.48    15226.860000
7511.10    14911.360000
7512.73    14742.350000
7514.35    14890.340000
7515.98    15166.820000
7517.60    15072.460000
7519.22    14919.910000
7520.85    14765.210000
7522.47    14891.570000
7524.10    15031.190000
7525.72    15120.110000
7527.34    14961.990000
7528.97    14973.880000
7530.59    15227.470000
7532.22    15531.450000
7533.84    15527.070000
7535.46    15019.760000
7537.09    14963.700000
7538.71    15142.590000
7540.34    15051.880000
7541.96    14707.210000
7543.58    14946.580000
7545.21    15787.770000
7546.83    15029.500000
7548.45    14760.750000
7550.08    14821.300000
7551.70    15452.740000
7553.33    14361.970000
7554.95    14467.440000
7556.57    14753.220000
7558.20    15286.040000
7559.82    14731.880000
7561.45    14984.970000
7563.07    15277.860000
7564.70    15145.740000
7566.32    15174.310000
7567.94    15511.510000
7569.57    15840.900000
7571.19    15250.560000
7572.82    15822.220000
7574.44    15439.470000
7576.06    14558.210000
7577.69    15010.000000
7579.31    14530.340000
7580.94    14498.240000
