#Wavelength     Normalized Flux
#[Angstrom]       [Counts]
3650.00           0.388607
3652.00           0.364611
3654.00           0.347410
3656.00           0.349804
3658.00           0.365901
3660.00           0.377211
3662.00           0.378301
3664.00           0.384407
3666.00           0.405307
3668.00           0.431210
3670.00           0.453901
3672.00           0.437101
3674.00           0.428400
3676.00           0.422910
3678.00           0.418911
3680.00           0.415714
3682.00           0.404203
3684.00           0.416603
3686.00           0.420502
3688.00           0.418409
3690.00           0.404906
3692.00           0.382601
3694.00           0.375405
3696.00           0.392908
3698.00           0.421405
3700.00           0.432414
3702.00           0.447508
3704.00           0.443107
3706.00           0.430206
3708.00           0.423010
3710.00           0.426408
3712.00           0.426006
3714.00           0.398312
3716.00           0.378501
3718.00           0.380809
3720.00           0.392707
3722.00           0.401007
3724.00           0.407701
3726.00           0.416101
3728.00           0.415413
3730.00           0.415413
3732.00           0.428902
3734.00           0.474901
3736.00           0.529401
3738.00           0.560508
3740.00           0.555605
3742.00           0.494912
3744.00           0.420100
3746.00           0.362504
3748.00           0.344414
3750.00           0.364712
3752.00           0.362604
3754.00           0.348212
3756.00           0.322210
3758.00           0.311702
3760.00           0.317408
3762.00           0.330409
3764.00           0.353301
3766.00           0.383605
3768.00           0.405909
3770.00           0.415513
3772.00           0.417506
3774.00           0.404203
3776.00           0.398412
3778.00           0.399702
3780.00           0.409608
3782.00           0.418309
3784.00           0.434105
3786.00           0.461011
3788.00           0.492906
3790.00           0.517704
3792.00           0.517704
3794.00           0.495500
3796.00           0.471203
3798.00           0.446304
3800.00           0.421907
3802.00           0.389009
3804.00           0.374803
3806.00           0.375104
3808.00           0.382802
3810.00           0.397108
3812.00           0.412403
3814.00           0.442305
3816.00           0.455306
3818.00           0.457413
3820.00           0.453514
3822.00           0.425806
3824.00           0.419412
3826.00           0.399702
3828.00           0.409407
3830.00           0.409306
3832.00           0.402813
3834.00           0.378401
3836.00           0.338307
3838.00           0.310513
3840.00           0.300206
3842.00           0.296407
3844.00           0.288108
3846.00           0.280510
3848.00           0.284108
3850.00           0.300808
3852.00           0.338909
3854.00           0.378903
3856.00           0.416201
3858.00           0.427010
3860.00           0.430708
3862.00           0.429704
3864.00           0.433202
3866.00           0.426408
3868.00           0.416904
3870.00           0.407601
3872.00           0.413105
3874.00           0.437904
3876.00           0.454403
3878.00           0.462301
3880.00           0.445200
3882.00           0.440513
3884.00           0.427411
3886.00           0.423512
3888.00           0.411113
3890.00           0.406010
3892.00           0.389912
3894.00           0.372510
3896.00           0.357200
3898.00           0.364009
3900.00           0.381512
3902.00           0.397308
3904.00           0.415900
3906.00           0.449701
3908.00           0.484205
3910.00           0.502710
3912.00           0.497808
3914.00           0.493608
3916.00           0.496805
3918.00           0.510208
3920.00           0.523610
3922.00           0.529000
3924.00           0.540310
3926.00           0.540711
3928.00           0.526807
3930.00           0.489508
3932.00           0.442706
3934.00           0.411801
3936.00           0.387905
3938.00           0.364611
3940.00           0.330509
3942.00           0.288609
3944.00           0.277701
3946.00           0.269014
3948.00           0.293211
3950.00           0.327313
3952.00           0.381813
3954.00           0.419814
3956.00           0.457901
3958.00           0.491401
3960.00           0.521001
3962.00           0.532412
3964.00           0.527208
3966.00           0.511913
3968.00           0.490411
3970.00           0.453600
3972.00           0.416101
3974.00           0.367708
3976.00           0.326309
3978.00           0.280310
3980.00           0.256314
3982.00           0.263108
3984.00           0.307703
3986.00           0.370402
3988.00           0.438707
3990.00           0.503413
3992.00           0.540410
3994.00           0.561009
3996.00           0.578913
3998.00           0.599211
4000.00           0.610306
4002.00           0.609202
4004.00           0.615008
4006.00           0.627708
4008.00           0.647002
4010.00           0.660505
4012.00           0.668404
4014.00           0.673708
4016.00           0.669006
4018.00           0.664705
4020.00           0.669307
4022.00           0.691210
4024.00           0.710504
4026.00           0.717901
4028.00           0.725412
4030.00           0.727190
4032.00           0.718904
4034.00           0.705301
4036.00           0.691210
4038.00           0.689404
4040.00           0.669106
4042.00           0.641311
4044.00           0.633112
4046.00           0.665508
4048.00           0.717113
4050.00           0.738299
4052.00           0.726989
4054.00           0.694808
4056.00           0.655804
4058.00           0.637814
4060.00           0.650313
4062.00           0.679413
4064.00           0.688013
4066.00           0.688400
4068.00           0.680101
4070.00           0.664103
4072.00           0.646701
4074.00           0.638201
4076.00           0.642903
4078.00           0.656907
4080.00           0.672704
4082.00           0.679814
4084.00           0.677105
4086.00           0.673106
4088.00           0.670210
4090.00           0.671113
4092.00           0.664204
4094.00           0.675901
4096.00           0.697804
4098.00           0.704512
4100.00           0.703208
4102.00           0.694708
4104.00           0.686809
4106.00           0.680803
4108.00           0.654800
4110.00           0.631105
4112.00           0.599010
4114.00           0.581407
4116.00           0.592603
4118.00           0.622705
4120.00           0.650801
4122.00           0.656205
4124.00           0.662010
4126.00           0.678610
4128.00           0.701603
4130.00           0.706003
4132.00           0.702706
4134.00           0.702606
4136.00           0.709401
4138.00           0.715407
4140.00           0.709802
4142.00           0.691912
4144.00           0.672805
4146.00           0.676202
4148.00           0.699008
4150.00           0.718403
4152.00           0.712712
4154.00           0.691310
4156.00           0.682710
4158.00           0.685204
4160.00           0.683412
4162.00           0.677506
4164.00           0.670411
4166.00           0.678008
4168.00           0.697704
4170.00           0.725412
4172.00           0.746398
4174.00           0.754096
4176.00           0.748892
4178.00           0.747487
4180.00           0.746699
4182.00           0.722101
4184.00           0.694206
4186.00           0.649711
4188.00           0.658714
4190.00           0.678610
4192.00           0.711106
4194.00           0.720008
4196.00           0.717213
4198.00           0.713013
4200.00           0.726387
4202.00           0.731691
4204.00           0.741395
4206.00           0.733898
4208.00           0.714303
4210.00           0.693805
4212.00           0.674711
4214.00           0.693504
4216.00           0.708913
4218.00           0.733898
4220.00           0.748190
4222.00           0.759199
4224.00           0.756991
4226.00           0.738586
4228.00           0.736092
4230.00           0.746398
4232.00           0.756991
4234.00           0.738586
4236.00           0.690508
4238.00           0.641010
4240.00           0.618405
4242.00           0.642602
4244.00           0.695209
4246.00           0.735891
4248.00           0.736292
4250.00           0.733296
4252.00           0.736092
4254.00           0.759686
4256.00           0.765492
4258.00           0.758798
4260.00           0.735891
4262.00           0.717901
4264.00           0.710003
4266.00           0.708512
4268.00           0.703409
4270.00           0.698306
4272.00           0.698306
4274.00           0.715708
4276.00           0.738787
4278.00           0.761091
4280.00           0.757694
4282.00           0.731189
4284.00           0.691712
4286.00           0.670812
4288.00           0.677205
4290.00           0.707007
4292.00           0.729598
4294.00           0.735791
4296.00           0.725914
4298.00           0.705803
4300.00           0.687712
4302.00           0.665107
4304.00           0.656506
4306.00           0.650113
4308.00           0.647905
4310.00           0.611911
4312.00           0.577408
4314.00           0.551706
4316.00           0.554200
4318.00           0.549613
4320.00           0.541013
4322.00           0.544008
4324.00           0.574211
4326.00           0.633413
4328.00           0.711106
4330.00           0.777490
4332.00           0.789889
4334.00           0.768387
4336.00           0.724911
4338.00           0.701502
4340.00           0.700614
4342.00           0.722904
4344.00           0.767699
4346.00           0.788886
4348.00           0.775598
4350.00           0.718102
4352.00           0.643304
4354.00           0.605805
4356.00           0.640408
4358.00           0.734586
4360.00           0.818888
4362.00           0.837996
4364.00           0.799895
4366.00           0.768187
4368.00           0.768688
4370.00           0.790792
4372.00           0.801988
4374.00           0.815491
4376.00           0.841895
4378.00           0.858193
4380.00           0.847987
4382.00           0.828091
4384.00           0.809986
4386.00           0.791996
4388.00           0.767699
4390.00           0.765592
4392.00           0.764789
4394.00           0.758597
4396.00           0.718904
4398.00           0.692113
4400.00           0.681706
4402.00           0.703910
4404.00           0.733296
4406.00           0.757794
4408.00           0.781589
4410.00           0.793888
4412.00           0.799794
4414.00           0.787997
4416.00           0.767699
4418.00           0.751286
4420.00           0.751487
4422.00           0.775598
4424.00           0.815992
4426.00           0.828893
4428.00           0.828191
4430.00           0.813599
4432.00           0.821497
4434.00           0.831889
4436.00           0.835789
4438.00           0.837394
4440.00           0.835588
4442.00           0.834097
4444.00           0.829797
4446.00           0.823590
4448.00           0.823891
4450.00           0.835989
4452.00           0.849091
4454.00           0.855097
4456.00           0.857993
4458.00           0.864988
4460.00           0.886791
4462.00           0.894188
4464.00           0.890590
4466.00           0.865991
4468.00           0.836892
4470.00           0.811592
4472.00           0.797099
4474.00           0.795394
4476.00           0.807091
4478.00           0.825998
4480.00           0.834699
4482.00           0.845092
4484.00           0.861591
4486.00           0.896796
4488.00           0.921495
4490.00           0.925896
4492.00           0.907390
4494.00           0.894790
4496.00           0.893786
4498.00           0.901498
4500.00           0.905096
4502.00           0.907590
4504.00           0.908995
4506.00           0.906200
4508.00           0.896897
4510.00           0.903691
4512.00           0.929794
4514.00           0.949290
4516.00           0.969387
4518.00           0.982789
4520.00           0.987391
4522.00           0.987290
4524.00           0.968097
4526.00           0.971895
4528.00           0.944488
4530.00           0.931787
4532.00           0.929393
4534.00           0.944889
4536.00           0.938596
4538.00           0.909397
4540.00           0.878290
4542.00           0.848890
4544.00           0.833896
4546.00           0.833094
4548.00           0.859498
4550.00           0.893987
4552.00           0.922799
4554.00           0.926498
4556.00           0.925896
4558.00           0.919087
4560.00           0.924691
4562.00           0.916392
4564.00           0.912693
4566.00           0.914199
4568.00           0.923287
4570.00           0.938596
4572.00           0.943197
4574.00           0.948387
4576.00           0.955898
4578.00           0.966591
4580.00           0.971996
4582.00           0.969000
4584.00           0.959797
4586.00           0.960987
4588.00           0.965588
4590.00           0.968398
4592.00           0.951497
4594.00           0.926197
4596.00           0.915890
4598.00           0.915288
4600.00           0.917496
4602.00           0.916592
4604.00           0.915790
4606.00           0.924190
4608.00           0.925996
4610.00           0.924190
4612.00           0.925896
4614.00           0.924691
4616.00           0.931300
4618.00           0.937994
4620.00           0.953189
4622.00           0.964900
4624.00           0.966892
4626.00           0.970691
4628.00           0.984295
4630.00           0.996493
4632.00           1.007488
4634.00           1.006700
4636.00           1.000693
4638.00           0.995189
4640.00           0.991491
4642.00           0.987692
4644.00           0.985298
4646.00           0.974088
4648.00           0.960098
4650.00           0.945792
4652.00           0.939786
4654.00           0.938295
4656.00           0.932088
4658.00           0.918399
4660.00           0.900394
4662.00           0.905196
4664.00           0.915890
4666.00           0.941492
4668.00           0.953389
4670.00           0.964800
4672.00           0.977299
4674.00           0.970290
4676.00           0.967495
4678.00           0.941893
4680.00           0.919789
4682.00           0.900595
4684.00           0.899190
4686.00           0.917897
4688.00           0.939298
4690.00           0.958593
4692.00           0.954192
4694.00           0.936890
4696.00           0.937492
4698.00           0.929995
4700.00           0.940890
4702.00           0.931486
4704.00           0.935098
4706.00           0.934496
4708.00           0.942495
4710.00           0.944989
4712.00           0.929493
4714.00           0.904594
4716.00           0.892496
4718.00           0.894188
4720.00           0.900093
4722.00           0.906200
4724.00           0.917997
4726.00           0.919990
4728.00           0.928891
4730.00           0.936288
4732.00           0.958091
4734.00           0.971895
4736.00           0.981399
4738.00           0.977887
4740.00           0.967294
4742.00           0.949591
4744.00           0.931887
4746.00           0.923186
4748.00           0.924491
4750.00           0.934496
4752.00           0.946795
4754.00           0.958091
4756.00           0.966190
4758.00           0.972999
4760.00           0.981399
4762.00           0.983492
4764.00           0.982789
4766.00           0.966491
4768.00           0.954192
4770.00           0.945792
4772.00           0.949691
4774.00           0.951798
4776.00           0.944588
4778.00           0.929594
4780.00           0.915589
4782.00           0.917696
4784.00           0.938496
4786.00           0.958091
4788.00           0.968899
4790.00           0.974088
4792.00           0.971594
4794.00           0.981198
4796.00           0.973988
4798.00           0.971996
4800.00           0.955597
4802.00           0.938797
4804.00           0.944889
4806.00           0.960198
4808.00           0.981786
4810.00           0.985599
4812.00           0.986187
4814.00           0.984094
4816.00           0.988495
4818.00           0.977500
4820.00           0.980897
4822.00           0.976296
4824.00           0.977099
4826.00           0.970591
4828.00           0.968598
4830.00           0.974791
4832.00           0.986187
4834.00           0.999991
4836.00           1.005696
4838.00           0.997296
4840.00           0.977987
4842.00           0.959997
4844.00           0.959797
4846.00           0.960600
4848.00           0.971394
4850.00           0.964298
4852.00           0.963395
4854.00           0.955296
4856.00           0.955898
4858.00           0.950092
4860.00           0.949992
4862.00           0.946695
4864.00           0.943298
4866.00           0.934898
4868.00           0.914199
4870.00           0.885988
4872.00           0.855097
4874.00           0.834197
4876.00           0.831990
4878.00           0.841494
4880.00           0.846296
4882.00           0.854796
4884.00           0.859197
4886.00           0.871596
4888.00           0.881989
4890.00           0.892897
4892.00           0.903390
4894.00           0.917897
4896.00           0.927200
4898.00           0.923989
4900.00           0.909999
4902.00           0.893886
4904.00           0.891593
4906.00           0.910300
4908.00           0.941592
4910.00           0.974189
4912.00           0.989398
4914.00           0.992695
4916.00           0.992996
4918.00           0.989799
4920.00           0.985298
4922.00           0.979392
4924.00           0.972196
4926.00           0.966290
4928.00           0.961589
4930.00           0.959797
4932.00           0.949490
4934.00           0.923989
4936.00           0.902487
4938.00           0.896997
4940.00           0.926197
4942.00           0.954794
4944.00           0.978188
4946.00           0.985198
4948.00           0.971695
4950.00           0.954493
4952.00           0.940990
4954.00           0.946093
4956.00           0.957790
4958.00           0.969688
4960.00           0.991491
4962.00           1.006097
4964.00           1.012992
4966.00           1.003388
4968.00           0.998586
4970.00           0.985298
4972.00           0.975794
4974.00           0.968498
4976.00           0.981299
4978.00           0.988194
4980.00           0.978188
4982.00           0.962191
4984.00           0.962090
4986.00           0.976697
4988.00           0.988996
4990.00           0.984897
4992.00           0.969487
4994.00           0.943298
4996.00           0.923186
4998.00           0.902587
5000.00           0.909497
5002.00           0.919689
5004.00           0.943799
5006.00           0.955697
5008.00           0.962692
5010.00           0.957790
5012.00           0.951296
5014.00           0.944789
5016.00           0.944488
5018.00           0.943799
5020.00           0.947799
5022.00           0.958191
5024.00           0.954393
5026.00           0.938295
5028.00           0.906099
5030.00           0.882490
5032.00           0.866192
5034.00           0.862895
5036.00           0.869288
5038.00           0.896796
5040.00           0.915790
5042.00           0.927100
5044.00           0.925093
5046.00           0.924190
5048.00           0.932790
5050.00           0.925996
5052.00           0.915890
5054.00           0.903290
5056.00           0.896194
5058.00           0.901197
5060.00           0.901297
5062.00           0.914887
5064.00           0.920090
5066.00           0.927386
5068.00           0.936990
5070.00           0.956399
5072.00           0.974490
5074.00           0.984295
5076.00           0.984897
5078.00           0.968899
5080.00           0.951698
5082.00           0.936890
5084.00           0.938195
5086.00           0.939700
5088.00           0.933091
5090.00           0.923889
5092.00           0.908192
5094.00           0.895392
5096.00           0.893198
5098.00           0.891994
5100.00           0.902788
5102.00           0.917696
5104.00           0.940789
5106.00           0.964097
5108.00           0.968899
5110.00           0.959395
5112.00           0.940789
5114.00           0.924591
5116.00           0.918298
5118.00           0.915890
5120.00           0.933292
5122.00           0.946695
5124.00           0.949791
5126.00           0.935500
5128.00           0.935786
5130.00           0.940990
5132.00           0.949691
5134.00           0.952486
5136.00           0.950795
5138.00           0.932891
5140.00           0.905096
5142.00           0.890389
5144.00           0.888396
5146.00           0.893399
5148.00           0.895793
5150.00           0.896596
5152.00           0.904093
5154.00           0.914098
5156.00           0.920592
5158.00           0.913597
5160.00           0.907390
5162.00           0.906099
5164.00           0.904594
5166.00           0.902587
5168.00           0.905899
5170.00           0.917496
5172.00           0.928089
5174.00           0.933091
5176.00           0.935199
5178.00           0.926498
5180.00           0.892295
5182.00           0.836993
5184.00           0.783897
5186.00           0.760890
5188.00           0.763399
5190.00           0.778895
5192.00           0.794892
5194.00           0.806790
5196.00           0.813900
5198.00           0.821999
5200.00           0.834699
5202.00           0.848288
5204.00           0.862193
5206.00           0.872098
5208.00           0.879093
5210.00           0.888497
5212.00           0.907590
5214.00           0.931988
5216.00           0.944588
5218.00           0.941492
5220.00           0.928490
5222.00           0.916894
5224.00           0.911389
5226.00           0.913095
5228.00           0.913496
5230.00           0.910400
5232.00           0.918499
5234.00           0.939399
5236.00           0.961789
5238.00           0.965989
5240.00           0.961789
5242.00           0.952099
5244.00           0.938295
5246.00           0.923287
5248.00           0.918599
5250.00           0.934095
5252.00           0.959295
5254.00           0.974189
5256.00           0.981499
5258.00           0.988194
5260.00           1.002098
5262.00           1.006198
5264.00           0.999489
5266.00           0.988595
5268.00           0.973587
5270.00           0.961990
5272.00           0.962993
5274.00           0.980998
5276.00           0.993096
5278.00           0.973687
5280.00           0.928189
5282.00           0.883092
5284.00           0.853692
5286.00           0.843587
5288.00           0.846998
5290.00           0.871395
5292.00           0.911489
5294.00           0.944086
5296.00           0.954694
5298.00           0.953991
5300.00           0.962793
5302.00           0.988294
5304.00           1.011186
5306.00           1.018095
5308.00           1.020489
5310.00           1.022898
5312.00           1.014698
5314.00           0.994888
5316.00           0.980596
5318.00           0.989398
5320.00           0.998400
5322.00           1.012190
5324.00           1.030294
5326.00           1.050391
5328.00           1.056397
5330.00           1.050090
5332.00           1.048198
5334.00           1.046091
5336.00           1.040386
5338.00           1.026797
5340.00           1.003790
5342.00           0.976296
5344.00           0.954995
5346.00           0.948587
5348.00           0.956987
5350.00           0.974289
5352.00           0.993297
5354.00           1.006986
5356.00           1.011186
5358.00           1.008792
5360.00           1.001998
5362.00           0.994386
5364.00           0.989498
5366.00           0.995891
5368.00           1.013293
5370.00           1.032186
5372.00           1.049689
5374.00           1.063292
5376.00           1.070689
5378.00           1.063794
5380.00           1.047797
5382.00           1.031599
5384.00           1.016289
5386.00           0.994587
5388.00           0.977500
5390.00           0.978589
5392.00           1.002399
5394.00           1.025091
5396.00           1.035899
5398.00           1.039296
5400.00           1.044098
5402.00           1.043496
5404.00           1.033591
5406.00           1.019199
5408.00           1.008592
5410.00           0.999790
5412.00           0.988695
5414.00           0.976095
5416.00           0.966993
5418.00           0.958593
5420.00           0.948888
5422.00           0.941592
5424.00           0.937593
5426.00           0.937693
5428.00           0.941492
5430.00           0.955496
5432.00           0.977987
5434.00           0.998988
5436.00           1.012190
5438.00           1.024890
5440.00           1.035096
5442.00           1.036186
5444.00           1.020389
5446.00           1.003689
5448.00           0.988996
5450.00           0.974389
5452.00           0.968799
5454.00           0.977099
5456.00           0.998486
5458.00           1.015200
5460.00           1.028187
5462.00           1.042694
5464.00           1.053488
5466.00           1.051796
5468.00           1.039698
5470.00           1.018497
5472.00           0.999088
5474.00           0.992996
5476.00           0.997196
5478.00           1.003489
5480.00           0.999489
5482.00           1.001295
5484.00           1.011889
5486.00           1.022998
5488.00           1.024589
5490.00           1.015286
5492.00           0.998787
5494.00           0.978790
5496.00           0.965488
5498.00           0.967796
5500.00           0.983090
5502.00           0.997998
5504.00           0.994687
5506.00           0.986187
5508.00           0.987592
5510.00           0.998988
5512.00           1.009093
5514.00           1.005696
5516.00           0.999188
5518.00           1.002098
5520.00           1.007087
5522.00           1.011287
5524.00           1.007689
5526.00           1.001697
5528.00           1.000091
5530.00           0.998099
5532.00           1.000292
5534.00           1.007287
5536.00           1.013193
5538.00           1.016791
5540.00           1.016590
5542.00           1.014297
5544.00           1.014096
5546.00           1.015386
5548.00           1.019887
5550.00           1.024990
5552.00           1.024589
5554.00           1.018497
5556.00           1.020088
5558.00           1.025693
5560.00           1.028187
5562.00           1.026596
5564.00           1.023098
5566.00           1.031498
5568.00           1.027198
5570.00           1.024388
5572.00           1.016289
5574.00           1.017694
5576.00           1.018999
5578.00           1.020389
5580.00           1.021794
5582.00           1.023098
5584.00           1.024489
5586.00           1.025893
5588.00           1.027298
5590.00           1.028588
5592.00           1.037691
5594.00           1.043597
5596.00           1.046392
5598.00           1.035698
5600.00           1.024188
5602.00           1.011287
5604.00           0.999389
5606.00           0.989899
5608.00           0.985499
5610.00           0.987491
5612.00           0.991390
5614.00           0.990788
5616.00           0.984796
5618.00           0.980697
5620.00           0.989398
5622.00           1.005395
5624.00           1.024087
5626.00           1.041991
5628.00           1.059092
5630.00           1.061687
5632.00           1.042794
5634.00           1.013996
5636.00           0.994386
5638.00           0.991089
5640.00           0.998586
5642.00           1.009093
5644.00           1.015100
5646.00           1.025492
5648.00           1.044500
5650.00           1.059092
5652.00           1.057587
5654.00           1.036888
5656.00           1.016289
5658.00           1.010398
5660.00           1.008190
5662.00           1.004793
5664.00           1.002399
5666.00           1.010398
5668.00           1.027886
5670.00           1.039597
5672.00           1.046593
5674.00           1.036186
5676.00           1.010197
5678.00           0.984897
5680.00           0.981987
5682.00           0.997998
5684.00           1.012892
5686.00           1.019687
5688.00           1.020790
5690.00           1.025191
5692.00           1.036386
5694.00           1.048786
5696.00           1.056698
5698.00           1.052599
5700.00           1.037791
5702.00           1.022898
5704.00           1.015100
5706.00           1.018798
5708.00           1.026395
5710.00           1.032186
5712.00           1.035096
5714.00           1.035598
5716.00           1.037390
5718.00           1.041188
5720.00           1.038795
5722.00           1.024890
5724.00           1.008993
5726.00           0.995390
5728.00           0.986989
5730.00           0.980295
5732.00           0.988896
5734.00           1.012691
5736.00           1.038494
5738.00           1.055494
5740.00           1.064898
5742.00           1.069786
5744.00           1.067191
5746.00           1.061386
5748.00           1.057587
5750.00           1.054993
5752.00           1.048198
5754.00           1.047596
5756.00           1.056197
5758.00           1.066991
5760.00           1.062088
5762.00           1.049990
5764.00           1.043797
5766.00           1.045489
5768.00           1.044887
5770.00           1.043296
5772.00           1.043998
5774.00           1.042292
5776.00           1.035197
5778.00           1.030194
5780.00           1.036100
5782.00           1.042894
5784.00           1.045790
5786.00           1.044299
5788.00           1.046793
5790.00           1.056598
5792.00           1.070488
5794.00           1.077799
5796.00           1.062189
5798.00           1.032487
5800.00           1.005495
5802.00           0.996192
5804.00           1.002600
5806.00           1.014197
5808.00           1.023887
5810.00           1.030194
5812.00           1.043195
5814.00           1.059393
5816.00           1.069786
5818.00           1.070087
5820.00           1.073097
5822.00           1.079290
5824.00           1.081598
5826.00           1.078387
5828.00           1.070789
5830.00           1.065500
5832.00           1.060899
5834.00           1.057487
5836.00           1.059694
5838.00           1.066188
5840.00           1.076996
5842.00           1.085196
5844.00           1.086299
5846.00           1.084594
5848.00           1.083590
5850.00           1.083791
5852.00           1.085998
5854.00           1.090299
5856.00           1.097294
5858.00           1.104590
5860.00           1.101394
5862.00           1.081297
5864.00           1.066288
5866.00           1.058892
5868.00           1.057100
5870.00           1.054090
5872.00           1.051495
5874.00           1.053387
5876.00           1.046392
5878.00           1.037892
5880.00           1.034595
5882.00           1.013695
5884.00           0.952587
5886.00           0.915589
5888.00           0.915188
5890.00           0.960399
5892.00           1.040787
5894.00           1.090686
5896.00           1.111098
5898.00           1.093796
5900.00           1.081598
5902.00           1.068496
5904.00           1.012992
5906.00           0.961689
5908.00           0.925896
5910.00           0.903491
5912.00           0.888597
5914.00           0.888697
5916.00           0.904695
5918.00           0.928691
5920.00           0.955396
5922.00           0.982488
5924.00           1.008893
5926.00           1.030495
5928.00           1.037591
5930.00           1.033692
5932.00           1.034294
5934.00           1.048098
5936.00           1.058189
5938.00           1.053187
5940.00           1.036788
5942.00           1.028187
5944.00           1.028689
5946.00           1.029090
5948.00           1.021693
5950.00           1.010699
5952.00           1.012591
5954.00           1.028388
5956.00           1.046191
5958.00           1.052599
5960.00           1.053287
5962.00           1.052986
5964.00           1.046292
5966.00           1.032086
5968.00           1.021994
5970.00           1.023299
5972.00           1.026094
5974.00           1.025994
5976.00           1.024087
5978.00           1.028287
5980.00           1.035598
5982.00           1.040787
5984.00           1.042192
5986.00           1.041690
5988.00           1.049488
5990.00           1.053889
5992.00           1.047596
5994.00           1.036587
5996.00           1.032186
5998.00           1.030997
6000.00           1.021192
6002.00           1.016590
6004.00           1.023987
6006.00           1.037691
6008.00           1.041891
6010.00           1.037390
6012.00           1.031298
6014.00           1.029993
6016.00           1.033089
6018.00           1.032889
6020.00           1.028990
6022.00           1.022295
6024.00           1.011287
6026.00           1.003188
6028.00           1.004392
6030.00           1.018798
6032.00           1.026094
6034.00           1.022396
6036.00           1.017393
6038.00           1.019887
6040.00           1.015286
6042.00           1.008491
6044.00           1.011688
6046.00           1.024890
6048.00           1.037189
6050.00           1.037089
6052.00           1.036487
6054.00           1.045690
6056.00           1.060698
6058.00           1.072595
6060.00           1.067994
6062.00           1.055394
6064.00           1.049589
6066.00           1.056899
6068.00           1.071793
6070.00           1.086987
6072.00           1.092291
6074.00           1.084393
6076.00           1.073298
6078.00           1.066489
6080.00           1.066389
6082.00           1.064296
6084.00           1.062991
6086.00           1.060397
6088.00           1.054290
6090.00           1.049187
6092.00           1.052599
6094.00           1.058691
6096.00           1.051696
6098.00           1.040386
6100.00           1.036988
6102.00           1.043597
6104.00           1.041590
6106.00           1.034996
6108.00           1.031900
6110.00           1.038092
6112.00           1.046292
6114.00           1.051997
6116.00           1.056197
6118.00           1.058089
6120.00           1.054892
6122.00           1.045388
6124.00           1.034193
6126.00           1.031498
6128.00           1.038193
6130.00           1.041891
6132.00           1.034093
6134.00           1.024489
6136.00           1.017694
6138.00           1.016590
6140.00           1.015687
6142.00           1.016891
6144.00           1.025592
6146.00           1.038594
6148.00           1.051395
6150.00           1.055394
6152.00           1.048499
6154.00           1.036888
6156.00           1.023786
6158.00           1.015487
6160.00           1.017293
6162.00           1.028488
6164.00           1.034494
6166.00           1.032387
6168.00           1.025091
6170.00           1.018999
6172.00           1.012892
6174.00           1.001095
6176.00           0.983592
6178.00           0.961789
6180.00           0.945190
6182.00           0.939700
6184.00           0.942896
6186.00           0.954092
6188.00           0.965287
6190.00           0.974791
6192.00           0.983592
6194.00           0.994386
6196.00           1.006097
6198.00           1.011086
6200.00           1.011086
6202.00           1.008090
6204.00           0.998400
6206.00           0.980998
6208.00           0.966792
6210.00           0.963595
6212.00           0.969788
6214.00           0.971293
6216.00           0.969286
6218.00           0.972999
6220.00           0.988294
6222.00           1.007789
6224.00           1.022195
6226.00           1.019099
6228.00           0.995089
6230.00           0.968699
6232.00           0.955998
6234.00           0.958492
6236.00           0.956987
6238.00           0.958693
6240.00           0.964699
6242.00           0.970189
6244.00           0.962592
6246.00           0.948788
6248.00           0.938897
6250.00           0.930497
6252.00           0.921495
6254.00           0.919488
6256.00           0.928992
6258.00           0.941592
6260.00           0.944186
6262.00           0.935686
6264.00           0.927487
6266.00           0.927200
6268.00           0.932590
6270.00           0.935098
6272.00           0.929092
6274.00           0.917897
6276.00           0.908092
6278.00           0.902989
6280.00           0.899190
6282.00           0.899592
6284.00           0.908192
6286.00           0.925695
6288.00           0.942796
6290.00           0.951196
6292.00           0.952988
6294.00           0.952386
6296.00           0.953590
6298.00           0.954794
6300.00           0.956098
6302.00           0.957288
6304.00           0.958593
6306.00           0.959797
6308.00           0.961087
6310.00           0.962291
6312.00           0.969100
6314.00           0.964398
6316.00           0.964499
6318.00           0.960198
6320.00           0.968899
6322.00           0.974690
6324.00           0.979894
6326.00           0.982288
6328.00           0.983090
6330.00           0.984295
6332.00           0.983492
6334.00           0.970290
6336.00           0.947799
6338.00           0.932188
6340.00           0.934296
6342.00           0.953590
6344.00           0.974991
6346.00           0.987190
6348.00           0.985198
6350.00           0.979492
6352.00           0.981198
6354.00           0.982890
6356.00           0.981987
6358.00           0.976697
6360.00           0.975894
6362.00           0.975092
6364.00           0.974289
6366.00           0.973486
6368.00           0.972598
6370.00           0.971795
6372.00           0.970992
6374.00           0.970189
6376.00           0.964986
6378.00           0.954393
6380.00           0.945792
6382.00           0.948888
6384.00           0.965387
6386.00           0.988695
6388.00           1.010900
6390.00           1.026195
6392.00           1.030696
6394.00           1.025893
6396.00           1.016791
6398.00           1.005696
6400.00           0.997497
6402.00           0.995891
6404.00           1.001496
6406.00           1.006800
6408.00           1.001095
6410.00           0.987792
6412.00           0.981987
6414.00           0.985198
6416.00           0.991390
6418.00           0.992494
6420.00           0.998988
6422.00           1.006398
6424.00           1.010398
6426.00           1.011688
6428.00           1.014498
6430.00           1.014799
6432.00           1.008592
6434.00           1.003188
6436.00           0.994386
6438.00           0.984596
6440.00           0.977099
6442.00           0.979793
6444.00           0.987792
6446.00           0.992895
6448.00           0.994988
6450.00           0.992594
6452.00           0.984796
6454.00           0.975894
6456.00           0.975894
6458.00           0.989498
6460.00           1.006097
6462.00           1.010799
6464.00           1.003388
6466.00           0.999891
6468.00           1.004793
6470.00           1.006499
6472.00           1.000693
6474.00           0.992293
6476.00           0.991089
6478.00           0.993598
6480.00           0.995089
6482.00           0.991792
6484.00           0.985198
6486.00           0.984395
6488.00           0.986086
6490.00           0.985986
6492.00           0.982388
6494.00           0.982488
6496.00           0.992594
6498.00           1.008592
6500.00           1.023600
6502.00           1.034996
6504.00           1.029793
6506.00           1.007187
6508.00           0.983090
6510.00           0.969286
6512.00           0.965287
6514.00           0.951296
6516.00           0.932790
6518.00           0.925494
6520.00           0.936589
6522.00           0.958091
6524.00           0.972698
6526.00           0.976497
6528.00           0.979693
6530.00           0.993196
6532.00           1.008692
6534.00           1.017594
6536.00           1.017794
6538.00           1.008391
6540.00           0.997396
6542.00           0.994099
6544.00           1.006986
6546.00           1.006599
6548.00           0.991691
6550.00           0.979091
6552.00           0.984395
6554.00           0.996393
6556.00           1.001396
6558.00           1.008592
6560.00           1.011186
6562.00           1.020389
6564.00           1.042694
6566.00           1.072696
6568.00           1.077398
6570.00           1.050492
6572.00           1.016691
6574.00           0.997697
6576.00           0.997898
6578.00           1.022998
6580.00           1.078487
6582.00           1.133790
6584.00           1.155994
6586.00           1.129489
6588.00           1.078888
6590.00           1.025191
6592.00           0.984295
6594.00           0.967595
6596.00           0.981499
6598.00           1.024589
6600.00           1.081698
6602.00           1.132786
6604.00           1.167691
6606.00           1.174299
6608.00           1.149099
6610.00           1.095187
6612.00           1.035297
6614.00           0.993598
6616.00           0.978088
6618.00           0.980998
6620.00           0.987993
6622.00           0.991792
6624.00           0.994286
6626.00           0.993798
6628.00           0.990000
6630.00           0.986387
6632.00           0.991390
6634.00           0.998099
6636.00           1.004592
6638.00           1.009495
6640.00           1.012190
6642.00           1.009294
6644.00           0.998400
6646.00           0.988093
6648.00           0.985198
6650.00           0.986086
6652.00           0.986989
6654.00           0.985699
6656.00           0.986187
6658.00           0.986287
6660.00           0.982388
6662.00           0.982488
6664.00           0.988194
6666.00           0.997396
6668.00           1.001897
6670.00           1.002098
6672.00           0.998400
6674.00           0.991491
6676.00           0.987391
6678.00           0.988796
6680.00           0.989398
6682.00           0.982789
6684.00           0.974490
6686.00           0.973787
6688.00           0.982388
6690.00           0.990989
6692.00           0.995691
6694.00           0.991591
6696.00           0.982689
6698.00           0.977500
6700.00           0.982187
6702.00           0.990888
6704.00           0.992795
6706.00           0.992895
6708.00           0.992996
6710.00           0.993999
6712.00           0.992293
6714.00           0.989398
6716.00           0.983893
6718.00           0.973988
6720.00           0.964499
6722.00           0.960198
6724.00           0.965688
6726.00           0.979091
6728.00           0.991491
6730.00           1.003790
6732.00           1.015487
6734.00           1.028689
6736.00           1.040386
6738.00           1.047596
6740.00           1.052699
6742.00           1.052197
6744.00           1.040586
6746.00           1.025492
6748.00           1.019199
6750.00           1.033089
6752.00           1.050993
6754.00           1.055996
6756.00           1.045589
6758.00           1.026596
6760.00           1.007087
6762.00           0.988495
6764.00           0.974189
6766.00           0.964800
6768.00           0.960399
6770.00           0.961789
6772.00           0.966391
6774.00           0.974891
6776.00           0.985699
6778.00           0.994788
6780.00           0.998486
6782.00           0.997697
6784.00           0.994788
6786.00           0.989598
6788.00           0.983793
6790.00           0.979593
6792.00           0.980396
6794.00           0.987190
6796.00           0.993096
6798.00           0.992494
6800.00           0.985298
6802.00           0.983592
6804.00           0.988394
6806.00           0.992494
6808.00           0.988796
6810.00           0.982488
6812.00           0.977199
6814.00           0.973386
6816.00           0.972096
6818.00           0.973988
6820.00           0.970490
6822.00           0.954593
6824.00           0.948587
6826.00           0.963294
6828.00           0.996192
6830.00           1.024188
6832.00           1.045087
6834.00           1.054892
6836.00           1.045690
6838.00           1.019586
6840.00           0.997095
6842.00           0.990788
6844.00           0.995691
6846.00           1.002299
6848.00           1.003489
6850.00           1.001195
6852.00           0.994200
6854.00           0.978489
6856.00           0.959496
6858.00           0.945491
6860.00           0.949089
6862.00           0.973386
6864.00           0.997597
6866.00           0.992695
6868.00           0.938797
6870.00           0.849994
6872.00           0.764890
6874.00           0.715708
6876.00           0.716109
6878.00           0.757192
6880.00           0.815591
6882.00           0.865389
6884.00           0.891091
6886.00           0.895492
6888.00           0.891794
6890.00           0.889400
6892.00           0.884999
6894.00           0.875094
6896.00           0.868500
6898.00           0.873087
6900.00           0.890188
6902.00           0.907289
6904.00           0.911489
6906.00           0.906286
6908.00           0.905096
6910.00           0.922197
6912.00           0.949591
6914.00           0.966090
6916.00           0.967193
6918.00           0.966792
6920.00           0.968398
6922.00           0.983391
6924.00           1.007388
6926.00           1.029491
6928.00           1.034294
6930.00           1.010799
6932.00           0.979292
6934.00           0.960786
6936.00           0.965488
6938.00           0.986488
6940.00           0.997396
6942.00           0.993899
6944.00           0.983793
6946.00           0.982087
6948.00           0.996092
6950.00           1.020389
6952.00           1.042694
6954.00           1.046593
6956.00           1.029491
6958.00           1.003188
6960.00           0.984897
6962.00           0.986588
6964.00           0.995590
6966.00           1.001697
6968.00           1.002198
6970.00           1.002399
6972.00           1.003689
6974.00           1.005194
6976.00           1.011287
6978.00           1.022898
6980.00           1.034996
6982.00           1.041188
6984.00           1.036888
6986.00           1.028287
6988.00           1.021392
6990.00           1.017192
6992.00           1.011287
6994.00           0.997196
6996.00           0.980195
6998.00           0.969989
7000.00           0.970691
7002.00           0.977500
7004.00           0.980998
7006.00           0.981987
7008.00           0.984796
7010.00           0.995390
7012.00           1.012190
7014.00           1.021794
7016.00           1.025592
7018.00           1.018597
7020.00           1.000894
7022.00           0.985599
7024.00           0.977887
7026.00           0.983191
7028.00           0.985800
7030.00           0.987692
7032.00           0.992093
7034.00           0.990688
7036.00           0.978288
7038.00           0.972196
7040.00           0.976095
7042.00           0.983492
7044.00           0.987290
7046.00           0.995289
7048.00           1.018296
7050.00           1.040386
7052.00           1.053488
7054.00           1.054692
7056.00           1.050291
7058.00           1.047897
7060.00           1.053387
7062.00           1.064296
7064.00           1.071993
7066.00           1.081096
7068.00           1.093997
7070.00           1.105995
7072.00           1.104189
7074.00           1.093897
7076.00           1.087690
7078.00           1.090886
7080.00           1.091488
7082.00           1.084594
7084.00           1.075591
7086.00           1.076996
7088.00           1.091789
7090.00           1.108088
7092.00           1.124100
7094.00           1.147995
7096.00           1.173597
7098.00           1.193493
7100.00           1.195686
