#Wavelength     Flux
#[Angstrom]   [Counts]
3932.25    17516.670000
3933.89    17755.590000
3935.52    19165.360000
3937.16    19255.120000
3938.79    18864.900000
3940.42    19167.010000
3942.06    18549.790000
3943.69    17347.890000
3945.32    16554.600000
3946.96    15676.240000
3948.59    13917.920000
3950.23    13016.930000
3951.86    11717.600000
3953.49    9824.991000
3955.13    7993.667000
3956.76    6621.940000
3958.39    6600.094000
3960.03    7936.575000
3961.66    9404.726000
3963.30    9912.587000
3964.93    12009.060000
3966.56    12988.590000
3968.20    13471.270000
3969.83    15498.450000
3971.47    16626.500000
3973.10    17713.700000
3974.73    19201.850000
3976.37    19032.090000
3978.00    19477.980000
3979.64    19101.460000
3981.27    18627.750000
3982.90    17260.160000
3984.54    15639.200000
3986.17    14380.080000
3987.80    12490.510000
3989.44    10189.460000
3991.07    8890.378000
3992.71    7945.251000
3994.34    8267.652000
3995.97    10634.190000
3997.61    12132.450000
3999.24    13819.090000
4000.88    16933.770000
4002.51    19293.120000
4004.14    21269.500000
4005.78    22058.510000
4007.41    23054.540000
4009.04    23832.220000
4010.68    23921.480000
4012.31    24536.360000
4013.95    24769.290000
4015.58    25883.740000
4017.21    26158.760000
4018.85    25729.650000
4020.48    25884.720000
4022.11    25606.200000
4023.75    25676.790000
4025.38    26260.760000
4027.02    26410.110000
4028.65    26615.920000
4030.28    27148.970000
4031.92    27506.590000
4033.55    27129.650000
4035.19    27084.340000
4036.82    27704.390000
4038.45    28066.280000
4040.09    28557.260000
4041.72    29068.410000
4043.36    28476.610000
4044.99    28751.790000
4046.62    28772.210000
4048.26    28452.880000
4049.89    28787.170000
4051.52    28602.090000
4053.16    27685.520000
4054.79    26529.340000
4056.43    26359.460000
4058.06    25777.920000
4059.69    25964.470000
4061.33    26832.810000
4062.96    27779.000000
4064.59    27953.900000
4066.23    27312.710000
4067.86    27418.920000
4069.50    26629.060000
4071.13    25570.420000
4072.76    25832.410000
4074.40    25560.080000
4076.03    27154.440000
4077.67    27805.360000
4079.30    26668.020000
4080.93    25997.270000
4082.57    25849.540000
4084.20    25521.900000
4085.84    25508.170000
4087.47    25560.830000
4089.10    25355.870000
4090.74    25547.960000
4092.37    26004.290000
4094.01    26358.810000
4095.64    26363.560000
4097.27    26504.820000
4098.91    26307.940000
4100.54    26284.340000
4102.17    26860.410000
4103.81    27301.570000
4105.44    27859.970000
4107.07    28656.080000
4108.71    29117.810000
4110.34    29702.210000
4111.98    29795.360000
4113.61    30131.010000
4115.24    29884.950000
4116.88    30253.930000
4118.51    30182.730000
4120.15    29372.380000
4121.78    28010.830000
4123.41    26502.710000
4125.05    25907.510000
4126.68    25563.260000
4128.31    25171.760000
4129.95    25651.120000
4131.58    26632.060000
4133.22    26854.750000
4134.85    27190.580000
4136.48    27879.010000
4138.12    27644.990000
4139.75    27586.480000
4141.39    27782.650000
4143.02    27811.800000
4144.65    28179.000000
4146.29    28348.280000
4147.92    27707.440000
4149.56    27457.840000
4151.19    28120.680000
4152.82    27796.500000
4154.46    27370.560000
4156.09    26746.380000
4157.73    26478.850000
4159.36    26495.920000
4160.99    26195.470000
4162.63    26602.640000
4164.26    26997.800000
4165.89    27025.510000
4167.53    26646.440000
4169.16    25727.830000
4170.80    25936.650000
4172.43    25760.020000
4174.06    25319.040000
4175.70    24666.760000
4177.33    24893.350000
4178.97    25514.290000
4180.60    26007.910000
4182.23    25922.130000
4183.87    26176.780000
4185.50    27355.420000
4187.13    27360.610000
4188.77    26814.410000
4190.40    26715.950000
4192.04    26977.500000
4193.67    26635.210000
4195.30    26179.600000
4196.94    26256.900000
4198.57    26262.890000
4200.20    26219.640000
4201.84    25638.220000
4203.47    25304.650000
4205.11    26063.290000
4206.74    26186.870000
4208.37    26535.370000
4210.01    26659.230000
4211.64    26701.450000
4213.27    27322.680000
4214.91    27635.330000
4216.54    27135.870000
4218.18    27195.060000
4219.81    27594.460000
4221.44    26612.120000
4223.08    25819.100000
4224.71    26045.000000
4226.35    26257.070000
4227.98    26877.620000
4229.61    27350.020000
4231.25    27935.620000
4232.88    28568.510000
4234.52    28716.520000
4236.15    29505.780000
4237.78    29479.910000
4239.42    28790.770000
4241.05    28667.620000
4242.69    28890.920000
4244.32    29326.180000
4245.95    29259.720000
4247.59    28436.840000
4249.22    27631.640000
4250.85    26978.570000
4252.49    25764.090000
4254.12    25329.840000
4255.76    25994.300000
4257.39    26968.640000
4259.02    28253.910000
4260.66    28973.630000
4262.29    29517.180000
4263.93    29827.230000
4265.56    30774.610000
4267.19    31392.660000
4268.83    31324.780000
4270.46    31799.400000
4272.09    32295.870000
4273.73    32183.570000
4275.36    31352.900000
4277.00    30822.610000
4278.63    29813.600000
4280.26    28839.420000
4281.90    29096.200000
4283.53    29360.890000
4285.16    30146.200000
4286.80    31269.400000
4288.43    31546.220000
4290.07    32241.170000
4291.70    32305.810000
4293.33    31376.630000
4294.97    30656.750000
4296.60    29602.360000
4298.24    28245.820000
4299.87    27334.260000
4301.50    27259.000000
4303.14    28904.200000
4304.77    29496.360000
4306.40    29985.180000
4308.04    30480.950000
4309.67    29919.950000
4311.31    29933.190000
4312.94    29278.100000
4314.57    28629.530000
4316.21    28544.790000
4317.84    28320.380000
4319.48    28056.920000
4321.11    27920.280000
4322.74    27028.210000
4324.38    26479.350000
4326.01    24495.780000
4327.65    22995.800000
4329.28    21227.140000
4330.91    20855.100000
4332.55    22256.850000
4334.18    21852.580000
4335.81    23245.550000
4337.45    24428.400000
4339.08    26070.120000
4340.72    28820.460000
4342.35    31441.120000
4343.98    33675.610000
4345.62    35036.350000
4347.25    34691.910000
4348.89    34334.510000
4350.52    33136.310000
4352.15    32300.380000
4353.79    32082.770000
4355.42    33877.530000
4357.05    35064.980000
4358.69    36245.270000
4360.32    37337.700000
4361.96    36874.100000
4363.59    35868.820000
4365.22    35452.660000
4366.86    34595.650000
4368.49    33671.780000
4370.12    33582.270000
4371.76    34451.010000
4373.39    35524.510000
4375.03    36426.270000
4376.66    36661.160000
4378.29    35917.100000
4379.93    35819.000000
4381.56    35978.860000
4383.20    36017.540000
4384.83    35615.920000
4386.46    36583.350000
4388.10    36980.700000
4389.73    37562.650000
4391.36    38706.910000
4393.00    38888.240000
4394.63    38429.020000
4396.27    37653.140000
4397.90    36496.440000
4399.53    36709.290000
4401.17    35646.880000
4402.80    34740.760000
4404.44    35174.490000
4406.07    34112.120000
4407.70    33317.410000
4409.34    31919.290000
4410.97    30747.560000
4412.60    30817.380000
4414.24    30928.580000
4415.87    31391.770000
4417.51    32758.900000
4419.14    34082.930000
4420.77    34738.100000
4422.41    35731.960000
4424.04    35762.350000
4425.68    36082.340000
4427.31    35779.730000
4428.94    35529.180000
4430.58    34853.850000
4432.21    33511.210000
4433.85    34385.960000
4435.48    35203.790000
4437.11    35708.920000
4438.75    36414.830000
4440.38    36991.890000
4442.02    37227.000000
4443.65    38489.590000
4445.28    38589.790000
4446.92    38805.290000
4448.55    38388.250000
4450.18    38626.190000
4451.82    38636.000000
4453.45    38966.860000
4455.09    38509.680000
4456.72    38510.660000
4458.35    38429.130000
4459.99    38493.790000
4461.62    38341.290000
4463.25    38171.010000
4464.89    38958.520000
4466.52    38967.500000
4468.16    39135.690000
4469.79    39853.880000
4471.42    40152.380000
4473.06    40405.540000
4474.69    40865.480000
4476.32    41541.540000
4477.96    40595.060000
4479.59    39661.730000
4481.23    38178.400000
4482.86    37863.770000
4484.49    36698.810000
4486.13    35497.750000
4487.76    35729.060000
4489.40    35800.600000
4491.03    36522.860000
4492.66    37698.150000
4494.30    38529.920000
4495.93    39067.160000
4497.56    40254.580000
4499.20    40246.570000
4500.83    41364.450000
4502.47    42370.660000
4504.10    42846.570000
4505.73    43575.210000
4507.37    43062.450000
4509.00    42739.190000
4510.64    42369.050000
4512.27    42956.860000
4513.90    42903.210000
4515.54    42455.770000
4517.17    42161.300000
4518.81    41673.350000
4520.44    41550.340000
4522.07    40897.060000
4523.71    41529.240000
4525.34    42130.710000
4526.98    42404.660000
4528.61    43104.880000
4530.24    44510.680000
4531.88    44433.410000
4533.51    45970.000000
4535.14    47045.320000
4536.78    46655.310000
4538.41    45249.500000
4540.05    46478.950000
4541.68    45644.630000
4543.31    44719.780000
4544.95    43779.210000
4546.58    44153.870000
4548.22    43905.750000
4549.85    43946.820000
4551.48    43811.870000
4553.12    42228.460000
4554.75    40489.230000
4556.38    39285.860000
4558.02    38427.140000
4559.65    38608.310000
4561.29    39097.530000
4562.92    39150.890000
4564.55    40261.220000
4566.19    41230.660000
4567.82    42123.990000
4569.45    42454.870000
4571.09    43096.110000
4572.72    43742.480000
4574.36    43539.490000
4575.99    42194.080000
4577.62    42324.630000
4579.26    42389.770000
4580.89    42891.870000
4582.52    43052.520000
4584.16    44544.320000
4585.79    44307.570000
4587.43    46122.970000
4589.06    46517.820000
4590.69    46327.990000
4592.33    46701.230000
4593.96    46741.740000
4595.60    46129.950000
4597.23    46269.040000
4598.86    46636.130000
4600.50    46641.460000
4602.13    46414.680000
4603.77    45871.490000
4605.40    45567.280000
4607.03    44661.430000
4608.67    44674.420000
4610.30    44941.610000
4611.94    43756.190000
4613.57    44508.070000
4615.20    45118.880000
4616.84    45014.360000
4618.47    45418.250000
4620.10    46369.900000
4621.74    45345.440000
4623.37    44747.550000
4625.01    44476.620000
4626.64    43932.330000
4628.27    44890.170000
4629.91    43471.340000
4631.54    44680.690000
4633.18    46100.010000
4634.81    46268.380000
4636.44    47984.520000
4638.08    47751.170000
4639.71    48587.770000
4641.34    49601.380000
4642.98    49044.180000
4644.61    48971.780000
4646.25    48916.500000
4647.88    49199.020000
4649.51    50183.540000
4651.15    49184.740000
4652.78    49741.500000
4654.41    49238.280000
4656.05    49042.250000
4657.68    49251.230000
4659.32    49040.010000
4660.95    47613.990000
4662.58    47688.370000
4664.22    46957.660000
4665.85    46962.000000
4667.49    46804.120000
4669.12    45100.720000
4670.75    45303.040000
4672.39    44901.030000
4674.02    43670.620000
4675.65    44350.790000
4677.29    44180.120000
4678.92    44865.280000
4680.56    44484.360000
4682.19    45719.510000
4683.82    45382.280000
4685.46    46325.680000
4687.09    47502.850000
4688.73    46646.960000
4690.36    46953.760000
4691.99    46537.500000
4693.63    45570.160000
4695.26    44131.630000
4696.90    42923.460000
4698.53    42837.960000
4700.16    43219.390000
4701.80    43701.600000
4703.43    44663.930000
4705.06    44423.980000
4706.70    45481.450000
4708.33    44898.180000
4709.97    45353.300000
4711.60    44808.370000
4713.23    44376.630000
4714.87    44843.160000
4716.50    44587.530000
4718.14    45684.250000
4719.77    45895.100000
4721.40    46578.510000
4723.04    45982.730000
4724.67    45653.780000
4726.30    44409.910000
4727.94    44138.610000
4729.57    44175.980000
4731.21    44199.260000
4732.84    43970.190000
4734.47    44032.140000
4736.11    43938.390000
4737.74    44113.590000
4739.38    44274.500000
4741.01    44417.750000
4742.64    44865.730000
4744.28    45912.880000
4745.91    46652.930000
4747.54    48165.900000
4749.18    48440.750000
4750.81    48604.880000
4752.45    48779.280000
4754.08    47695.310000
4755.71    47521.730000
4757.35    47147.940000
4758.98    46317.550000
4760.61    45717.910000
4762.25    45877.640000
4763.88    47066.750000
4765.52    46975.120000
4767.15    46210.380000
4768.78    46904.280000
4770.42    48313.230000
4772.05    49557.410000
4773.69    49543.220000
4775.32    50108.930000
4776.95    49482.680000
4778.59    49539.610000
4780.22    49377.700000
4781.85    50063.180000
4783.49    49491.290000
4785.12    48437.500000
4786.76    47924.970000
4788.39    47491.180000
4790.02    47091.760000
4791.66    47503.750000
4793.29    46734.650000
4794.93    45803.350000
4796.56    45665.370000
4798.19    46119.340000
4799.83    46611.590000
4801.46    46812.090000
4803.10    47385.960000
4804.73    47734.020000
4806.36    48178.440000
4808.00    48212.880000
4809.63    47716.790000
4811.26    47465.110000
4812.90    46328.960000
4814.53    46404.140000
4816.17    47376.840000
4817.80    47231.850000
4819.43    46941.460000
4821.07    47306.300000
4822.70    49172.080000
4824.34    48829.160000
4825.97    48223.710000
4827.60    48734.680000
4829.24    48756.380000
4830.87    48946.290000
4832.50    48839.710000
4834.14    48527.770000
4835.77    48665.620000
4837.41    48034.550000
4839.04    47513.340000
4840.67    47456.640000
4842.31    47334.870000
4843.94    47811.520000
4845.57    48154.110000
4847.21    48494.680000
4848.84    48965.340000
4850.48    48963.490000
4852.11    48029.680000
4853.74    47809.330000
4855.38    48169.300000
4857.01    48249.030000
4858.65    47051.140000
4860.28    46790.980000
4861.91    46699.770000
4863.55    46528.740000
4865.18    46659.730000
4866.81    46175.880000
4868.45    45397.680000
4870.08    45516.580000
4871.72    45547.000000
4873.35    45757.180000
4874.98    46550.340000
4876.62    46746.850000
4878.25    46533.470000
4879.89    45708.310000
4881.52    45667.620000
4883.15    44562.400000
4884.79    43884.630000
4886.42    43619.260000
4888.06    42308.830000
4889.69    41580.350000
4891.32    40615.930000
4892.96    40846.490000
4894.59    40960.510000
4896.23    40927.290000
4897.86    40874.440000
4899.49    42056.000000
4901.13    42264.510000
4902.76    41876.790000
4904.39    41882.810000
4906.03    42914.370000
4907.66    43520.300000
4909.30    43931.810000
4910.93    44738.200000
4912.56    45245.740000
4914.20    44538.790000
4915.83    43615.660000
4917.46    43127.170000
4919.10    43493.360000
4920.73    43397.340000
4922.37    44067.330000
4924.00    45311.720000
4925.63    46204.860000
4927.27    47340.170000
4928.90    47515.590000
4930.53    47806.560000
4932.17    47147.210000
4933.80    46874.390000
4935.44    47240.360000
4937.07    47164.160000
4938.70    46462.170000
4940.34    46917.800000
4941.97    46674.240000
4943.61    47225.200000
4945.24    45842.800000
4946.87    44688.710000
4948.51    44157.540000
4950.14    43661.880000
4951.77    43296.130000
4953.41    43436.180000
4955.04    44142.400000
4956.68    44364.730000
4958.31    45878.220000
4959.94    46451.360000
4961.58    47450.480000
4963.21    47710.720000
4964.85    46129.660000
4966.48    45685.840000
4968.11    46289.740000
4969.75    45222.240000
4971.38    45753.490000
4973.02    46807.840000
4974.65    46939.130000
4976.28    48540.150000
4977.92    48392.690000
4979.55    48290.600000
4981.19    49739.820000
4982.82    48824.910000
4984.45    48344.470000
4986.09    46273.600000
4987.72    46094.230000
4989.35    45314.350000
4990.99    44541.760000
4992.62    44989.420000
4994.26    44859.310000
4995.89    45686.190000
4997.52    44592.570000
4999.16    44785.360000
5000.79    45629.550000
5002.43    45807.750000
5004.06    46213.890000
5005.69    45342.730000
5007.33    44783.080000
5008.96    44259.110000
5010.59    44537.220000
5012.23    43665.320000
5013.86    42427.090000
5015.50    42245.030000
5017.13    42528.160000
5018.76    42886.500000
5020.40    43077.120000
5022.03    43709.550000
5023.66    44107.950000
5025.30    44971.500000
5026.93    44509.510000
5028.57    44423.360000
5030.20    43794.800000
5031.83    42700.340000
5033.47    41496.770000
5035.10    41351.120000
5036.73    40785.310000
5038.37    40301.300000
5040.00    40467.830000
5041.64    41186.000000
5043.27    40721.750000
5044.90    40710.890000
5046.54    40586.180000
5048.17    39761.960000
5049.81    40550.430000
5051.44    41808.350000
5053.07    41419.180000
5054.71    41385.870000
5056.34    42505.890000
5057.98    42792.320000
5059.61    43311.270000
5061.24    43348.120000
5062.88    44178.100000
5064.51    43846.790000
5066.15    42927.080000
5067.78    43463.610000
5069.41    42700.630000
5071.05    41722.000000
5072.68    41401.440000
5074.31    41829.960000
5075.95    42492.250000
5077.58    42539.090000
5079.22    43060.460000
5080.85    43416.520000
5082.48    43516.820000
5084.12    43860.790000
5085.75    44146.530000
5087.39    45202.740000
5089.02    45177.590000
5090.65    45600.080000
5092.29    45183.480000
5093.92    45460.270000
5095.55    44752.240000
5097.19    44085.930000
5098.82    43811.150000
5100.46    43119.400000
5102.09    43732.860000
5103.72    43731.940000
5105.36    43130.820000
5106.99    42691.720000
5108.62    42628.730000
5110.26    42204.290000
5111.89    41390.650000
5113.53    41176.300000
5115.16    41383.790000
5116.79    41904.530000
5118.43    42549.740000
5120.06    43234.070000
5121.70    43757.280000
5123.33    43700.610000
5124.96    43347.290000
5126.60    43191.150000
5128.23    43767.550000
5129.86    43023.240000
5131.50    42141.120000
5133.13    41698.230000
5134.77    41426.430000
5136.40    41409.700000
5138.03    41569.180000
5139.67    41517.670000
5141.30    41921.690000
5142.94    42508.830000
5144.57    42207.050000
5146.20    42964.600000
5147.84    43920.450000
5149.47    43683.060000
5151.10    42766.890000
5152.74    43002.290000
5154.37    42086.510000
5156.01    41716.570000
5157.64    40752.230000
5159.27    40937.160000
5160.91    40622.120000
5162.54    40884.700000
5164.18    40564.230000
5165.81    41282.120000
5167.44    41750.770000
5169.08    41934.590000
5170.71    41609.270000
5172.35    40726.610000
5173.98    40788.270000
5175.61    40532.020000
5177.25    40998.190000
5178.88    40092.340000
5180.51    39344.700000
5182.15    39510.420000
5183.78    40734.710000
5185.42    40552.910000
5187.05    40820.580000
5188.68    40316.910000
5190.32    40259.140000
5191.95    40890.160000
5193.59    39114.750000
5195.22    38199.280000
5196.85    34917.230000
5198.49    32997.050000
5200.12    30472.100000
5201.75    31118.000000
5203.39    29020.800000
5205.02    28991.130000
5206.66    29881.960000
5208.29    30508.300000
5209.92    31155.890000
5211.56    31061.380000
5213.19    32161.900000
5214.82    30984.460000
5216.46    33350.250000
5218.09    33807.810000
5219.73    34967.200000
5221.36    36763.340000
5222.99    37810.410000
5224.63    38711.820000
5226.26    39419.650000
5227.90    40301.950000
5229.53    40203.290000
5231.16    40349.240000
5232.80    40540.840000
5234.43    39763.070000
5236.06    39578.710000
5237.70    38892.070000
5239.33    38044.820000
5240.97    38265.150000
5242.60    38393.730000
5244.23    38443.770000
5245.87    39171.240000
5247.50    41414.880000
5249.14    41752.920000
5250.77    42161.560000
5252.40    42398.230000
5254.04    41826.140000
5255.67    41722.770000
5257.31    41323.430000
5258.94    41450.620000
5260.57    41554.900000
5262.21    41256.980000
5263.84    41396.440000
5265.48    41897.550000
5267.11    42609.140000
5268.74    43353.980000
5270.38    43600.330000
5272.01    43206.610000
5273.64    44154.030000
5275.28    44656.910000
5276.91    43224.920000
5278.55    43516.910000
5280.18    43355.460000
5281.81    42938.730000
5283.45    42319.050000
5285.08    41607.610000
5286.71    42596.500000
5288.35    43104.350000
5289.98    42229.260000
5291.62    41967.460000
5293.25    41885.910000
5294.88    40608.410000
5296.52    39046.980000
5298.15    37649.510000
5299.78    37501.240000
5301.42    36905.410000
5303.05    36434.380000
5304.69    37093.790000
5306.32    38103.220000
5307.95    39069.370000
5309.59    40855.200000
5311.22    41679.370000
5312.86    42019.590000
5314.49    42379.090000
5316.12    43180.840000
5317.76    43806.830000
5319.39    43293.950000
5321.02    44605.350000
5322.66    44528.170000
5324.29    44906.350000
5325.93    43857.710000
5327.56    43879.920000
5329.19    44034.650000
5330.83    43504.490000
5332.46    42724.380000
5334.10    42783.630000
5335.73    43552.510000
5337.36    43341.570000
5339.00    44569.180000
5340.63    43681.000000
5342.27    45343.240000
5343.90    45641.280000
5345.53    45111.780000
5347.17    44962.620000
5348.80    44438.070000
5350.44    44437.460000
5352.07    44761.590000
5353.70    43325.900000
5355.34    42661.840000
5356.97    41404.840000
5358.60    41272.820000
5360.24    41381.330000
5361.87    39149.350000
5363.51    39460.230000
5365.14    40339.200000
5366.77    40810.690000
5368.41    40579.960000
5370.04    41163.380000
5371.68    41156.910000
5373.31    42009.410000
5374.94    41927.810000
5376.58    41963.770000
5378.21    41405.170000
5379.84    41302.600000
5381.48    41796.200000
5383.11    42366.890000
5384.75    43003.450000
5386.38    43807.080000
5388.01    43807.220000
5389.65    44321.450000
5391.28    44437.230000
5392.91    44420.300000
5394.55    43935.850000
5396.18    43879.830000
5397.82    43238.910000
5399.45    42583.030000
5401.08    41212.760000
5402.72    40508.170000
5404.35    41221.980000
5405.98    41005.080000
5407.62    41095.140000
5409.25    41571.380000
5410.89    42441.880000
5412.52    42308.770000
5414.15    41772.430000
5415.79    41986.230000
5417.42    42179.390000
5419.06    42192.310000
5420.69    42147.140000
5422.32    41657.730000
5423.96    41509.780000
5425.59    40425.090000
5427.23    39783.580000
5428.86    39685.870000
5430.49    38971.960000
5432.13    39052.430000
5433.76    39217.350000
5435.40    39019.760000
5437.03    38922.280000
5438.66    38866.110000
5440.30    38551.010000
5441.93    38803.450000
5443.56    39132.690000
5445.20    39004.200000
5446.83    39980.020000
5448.47    40726.430000
5450.10    41230.560000
5451.73    41541.820000
5453.37    41915.110000
5455.00    41765.860000
5456.64    41674.350000
5458.27    41826.620000
5459.90    41126.280000
5461.54    41200.580000
5463.17    41341.860000
5464.80    40362.210000
5466.44    40872.660000
5468.07    40904.930000
5469.71    41030.950000
5471.34    41320.730000
5472.97    41755.020000
5474.61    41436.430000
5476.24    41650.980000
5477.88    41742.320000
5479.51    41420.800000
5481.14    41087.750000
5482.78    41291.550000
5484.41    40791.020000
5486.04    40731.430000
5487.68    40321.940000
5489.31    40049.680000
5490.95    40288.500000
5492.58    40163.040000
5494.21    40441.820000
5495.85    40401.390000
5497.48    41409.770000
5499.11    40903.090000
5500.75    40313.820000
5502.38    40257.490000
5504.02    40293.080000
5505.65    40269.810000
5507.28    39920.020000
5508.92    39869.040000
5510.55    39907.750000
5512.19    39850.000000
5513.82    39555.120000
5515.45    39575.500000
5517.09    39635.400000
5518.72    40548.030000
5520.35    41162.770000
5521.99    40689.690000
5523.62    40698.480000
5525.26    41029.100000
5526.89    41568.020000
5528.52    41253.710000
5530.16    41484.140000
5531.79    41230.430000
5533.43    41337.100000
5535.06    41366.860000
5536.69    41012.980000
5538.33    40594.410000
5539.96    40412.900000
5541.60    40559.440000
5543.23    40456.010000
5544.86    40408.550000
5546.50    40575.270000
5548.13    40999.340000
5549.76    41132.660000
5551.40    41537.660000
5553.03    41826.720000
5554.67    41264.710000
5556.30    41789.790000
5557.93    42116.810000
5559.57    42585.720000
5561.20    42205.750000
5562.84    41470.620000
5564.47    41293.630000
5566.10    41831.990000
5567.74    41766.260000
5569.37    42082.300000
5571.00    42170.350000
5572.64    41798.450000
5574.27    41367.880000
5575.91    40827.980000
5577.54    41615.820000
5579.17    42828.570000
5580.81    43499.670000
5582.44    43625.610000
5584.07    44122.530000
5585.71    44741.870000
5587.34    44503.560000
5588.98    44174.070000
5590.61    41681.130000
5592.24    41239.960000
5593.88    41029.740000
5595.51    40854.290000
5597.15    40733.390000
5598.78    40433.650000
5600.41    40236.230000
5602.05    40073.960000
5603.68    40392.020000
5605.31    40382.650000
5606.95    40306.690000
5608.58    40161.150000
5610.22    40240.850000
5611.85    40302.710000
5613.48    40163.160000
5615.12    39787.430000
5616.75    39218.520000
5618.39    38876.130000
5620.02    38630.440000
5621.65    38399.790000
5623.29    37997.630000
5624.92    37795.010000
5626.56    37879.280000
5628.19    38361.790000
5629.82    38326.340000
5631.46    38080.640000
5633.09    38198.710000
5634.73    39037.850000
5636.36    39450.440000
5637.99    39345.500000
5639.63    39313.810000
5641.26    39780.080000
5642.89    39705.390000
5644.53    39641.740000
5646.16    39619.300000
5647.80    39923.300000
5649.43    39403.860000
5651.06    39111.660000
5652.70    38859.840000
5654.33    38902.960000
5655.96    38809.080000
5657.60    38816.260000
5659.23    38816.310000
5660.87    38665.820000
5662.50    38471.780000
5664.13    38547.700000
5665.77    38702.420000
5667.40    39082.610000
5669.03    39226.950000
5670.67    39225.400000
5672.30    39025.630000
5673.94    38751.080000
5675.57    38962.770000
5677.20    39140.410000
5678.84    39247.730000
5680.47    39068.750000
5682.11    39185.320000
5683.74    39196.500000
5685.37    39197.430000
5687.01    39054.260000
5688.64    38955.910000
5690.27    38846.910000
5691.91    38832.620000
5693.54    38472.020000
5695.18    38401.570000
5696.81    38394.740000
5698.44    38533.640000
5700.08    38446.490000
5701.71    38687.590000
5703.35    38982.700000
5704.98    39502.270000
5706.61    39592.730000
5708.25    39824.460000
5709.88    40010.950000
5711.52    39881.940000
5713.15    39444.370000
5714.78    39371.430000
5716.42    39369.030000
5718.05    39227.180000
5719.69    39296.910000
5721.32    39341.980000
5722.95    39317.950000
5724.59    39056.110000
5726.22    39370.480000
5727.85    39543.050000
5729.49    39594.770000
5731.12    39433.880000
5732.76    39496.650000
5734.39    39577.920000
5736.02    39825.450000
5737.66    39230.930000
5739.29    38704.320000
5740.93    38200.120000
5742.56    37749.470000
5744.19    38513.620000
5745.83    38630.920000
5747.46    38676.550000
5749.09    38966.340000
5750.73    39207.990000
5752.36    39522.910000
5753.99    39952.040000
5755.63    41028.400000
5757.26    41102.370000
5758.90    41144.800000
5760.53    41102.080000
5762.16    41052.340000
5763.80    41042.150000
5765.43    41127.900000
5767.07    41173.390000
5768.70    41146.410000
5770.33    41056.800000
5771.97    41127.650000
5773.60    41211.720000
5775.23    41053.840000
5776.87    40809.230000
5778.50    41000.290000
5780.14    41565.250000
5781.77    41683.740000
5783.40    41594.150000
5785.04    41537.400000
5786.67    41686.090000
5788.31    40915.020000
5789.94    40969.290000
5791.57    41158.590000
5793.21    41668.850000
5794.84    41080.640000
5796.48    41052.210000
5798.11    41140.340000
5799.74    41578.230000
5801.38    41436.360000
5803.01    41793.880000
5804.65    42177.000000
5806.28    42440.350000
5807.91    42454.840000
5809.55    42217.890000
5811.18    41885.580000
5812.81    41819.360000
5814.45    41538.700000
5816.08    41283.840000
5817.72    40964.760000
5819.35    40617.140000
5820.98    40686.410000
5822.62    40972.410000
5824.25    41282.700000
5825.89    41373.630000
5827.52    41509.520000
5829.15    42063.730000
5830.79    42912.950000
5832.42    43182.360000
5834.05    42985.350000
5835.69    43023.620000
5837.32    43315.230000
5838.96    43044.570000
5840.59    43203.700000
5842.22    43416.960000
5843.86    43794.210000
5845.49    43543.210000
5847.12    43959.810000
5848.76    44237.430000
5850.39    44303.920000
5852.03    43663.340000
5853.66    43619.080000
5855.29    43562.450000
5856.93    43351.450000
5858.56    43584.910000
5860.19    43800.770000
5861.83    43931.920000
5863.46    44036.230000
5865.10    43779.590000
5866.73    43840.230000
5868.36    43978.450000
5870.00    44073.990000
5871.63    43648.590000
5873.27    43674.710000
5874.90    43806.090000
5876.53    43449.250000
5878.17    43630.270000
5879.80    43601.370000
5881.44    43334.450000
5883.07    43453.240000
5884.70    42835.000000
5886.34    42517.130000
5887.97    42438.150000
5889.60    41481.280000
5891.24    41537.900000
5892.87    41388.490000
5894.51    41060.590000
5896.14    41157.440000
5897.77    40990.080000
5899.41    40870.720000
5901.04    41020.980000
5902.68    41547.500000
5904.31    41629.770000
5905.94    41653.640000
5907.58    41904.890000
5909.21    42178.610000
5910.85    41946.700000
5912.48    41657.680000
5914.11    41690.340000
5915.75    40528.420000
5917.38    39775.920000
5919.01    38889.130000
5920.65    36705.500000
5922.28    34917.470000
5923.92    33796.670000
5925.55    32825.960000
5927.18    31588.480000
5928.82    30631.960000
5930.45    30449.180000
5932.09    30809.620000
5933.72    34290.460000
5935.35    35007.810000
5936.99    35872.380000
5938.62    36944.470000
5940.25    37754.860000
5941.89    38418.350000
5943.52    39182.060000
5945.16    40277.260000
5946.79    40588.890000
5948.42    41126.180000
5950.06    41505.660000
5951.69    41678.060000
5953.32    41875.780000
5954.96    42042.300000
5956.59    42119.230000
5958.23    42197.660000
5959.86    42354.890000
5961.49    42656.480000
5963.13    42882.790000
5964.76    42935.990000
5966.40    42688.010000
5968.03    42563.290000
5969.66    42363.480000
5971.30    41982.400000
5972.93    42438.070000
5974.56    42573.230000
5976.20    42551.100000
5977.83    42525.740000
5979.47    43070.120000
5981.10    43037.830000
5982.73    42599.070000
5984.37    42690.580000
5986.00    42469.790000
5987.64    42572.330000
5989.27    42880.020000
5990.90    42796.370000
5992.54    42413.250000
5994.17    42520.980000
5995.81    43291.080000
5997.44    43421.520000
5999.07    43467.870000
6000.71    43373.490000
6002.34    43175.630000
6003.98    43489.730000
6005.61    43403.480000
6007.24    43387.350000
6008.88    43832.470000
6010.51    43619.570000
6012.14    43207.240000
6013.78    42820.550000
6015.41    42707.370000
6017.05    42362.960000
6018.68    42418.970000
6020.31    42489.870000
6021.95    42494.750000
6023.58    42332.170000
6025.21    42472.560000
6026.85    42690.900000
6028.48    43109.790000
6030.12    42685.590000
6031.75    42911.400000
6033.38    43332.180000
6035.02    42810.430000
6036.65    42594.300000
6038.28    42388.180000
6039.92    42121.890000
6041.55    42318.700000
6043.19    42263.320000
6044.82    42300.580000
6046.45    42430.760000
6048.09    41657.790000
6049.72    41708.350000
6051.36    41741.540000
6052.99    41864.730000
6054.62    41529.090000
6056.26    41673.080000
6057.89    41700.370000
6059.52    41466.720000
6061.16    41953.770000
6062.79    41963.990000
6064.43    41982.590000
6066.06    42427.830000
6067.69    42845.010000
6069.33    43109.390000
6070.96    43277.760000
6072.60    43502.450000
6074.23    43316.460000
6075.86    43114.690000
6077.50    42930.740000
6079.13    43162.140000
6080.77    43204.750000
6082.40    43345.040000
6084.03    43470.790000
6085.67    43844.370000
6087.30    43481.040000
6088.94    43209.690000
6090.57    42905.860000
6092.20    43125.530000
6093.84    42988.340000
6095.47    42913.180000
6097.10    42857.580000
6098.74    42472.010000
6100.37    42384.160000
6102.01    42407.930000
6103.64    42757.920000
6105.27    42396.300000
6106.91    42567.070000
6108.54    42751.790000
6110.18    43058.990000
6111.81    43143.000000
6113.44    42867.550000
6115.08    42585.620000
6116.71    42605.440000
6118.34    42135.120000
6119.98    41692.880000
6121.61    41402.060000
6123.24    41815.590000
6124.88    41322.190000
6126.51    41106.340000
6128.15    40931.660000
6129.78    40982.950000
6131.41    41253.920000
6133.05    41166.660000
6134.68    40901.300000
6136.32    41112.760000
6137.95    40956.100000
6139.58    40866.670000
6141.22    40779.450000
6142.85    41027.320000
6144.48    40745.280000
6146.12    40783.590000
6147.75    41118.210000
6149.39    40608.410000
6151.02    40569.250000
6152.65    40560.660000
6154.29    40725.870000
6155.92    40452.920000
6157.56    40196.500000
6159.19    39968.840000
6160.82    39841.290000
6162.46    39493.410000
6164.09    39617.590000
6165.73    39741.840000
6167.36    39957.820000
6168.99    39385.860000
6170.63    39432.120000
6172.26    39585.540000
6173.90    39939.130000
6175.53    38757.680000
6177.16    38816.620000
6178.80    39156.660000
6180.43    39620.680000
6182.06    39300.750000
6183.70    39231.230000
6185.33    39254.620000
6186.97    39530.480000
6188.60    38697.270000
6190.23    38467.360000
6191.87    38457.220000
6193.50    38127.930000
6195.14    37629.430000
6196.77    37120.520000
6198.40    36486.630000
6200.04    36177.400000
6201.67    35857.620000
6203.30    35674.780000
6204.94    35581.950000
6206.57    35932.230000
6208.20    36139.110000
6209.84    36335.740000
6211.47    36657.910000
6213.11    36827.250000
6214.74    36874.450000
6216.38    37026.470000
6218.01    37623.060000
6219.64    37321.870000
6221.28    36804.980000
6222.91    36420.500000
6224.54    36635.080000
6226.18    36368.320000
6227.81    36356.350000
6229.44    36310.110000
6231.08    36106.940000
6232.71    35559.540000
6234.35    35938.980000
6235.98    36524.900000
6237.61    36503.890000
6239.25    36522.910000
6240.88    36535.450000
6242.52    36460.230000
6244.15    36373.590000
6245.78    36423.860000
6247.42    36438.210000
6249.05    36373.530000
6250.69    35961.960000
6252.32    35455.820000
6253.95    35220.290000
6255.59    35239.950000
6257.22    34959.610000
6258.85    34977.290000
6260.49    34864.150000
6262.12    34662.660000
6263.76    34984.020000
6265.39    34949.150000
6267.02    34803.520000
6268.66    34529.460000
6270.29    34663.910000
6271.93    34353.990000
6273.56    33944.570000
6275.19    33574.230000
6276.83    33230.710000
6278.46    32946.950000
6280.10    32731.940000
6281.73    32954.450000
6283.36    33362.830000
6285.00    33598.860000
6286.63    33787.310000
6288.26    34123.070000
6289.90    33246.540000
6291.53    33092.720000
6293.17    33198.500000
6294.80    33380.350000
6296.43    33452.090000
6298.07    33718.480000
6299.70    34062.990000
6301.34    34574.910000
6302.97    34512.060000
6304.60    34535.110000
6306.24    34617.290000
6307.87    35308.150000
6309.50    35239.150000
6311.14    35232.520000
6312.77    35461.430000
6314.41    35215.710000
6316.04    35477.090000
6317.67    35685.550000
6319.31    35879.640000
6320.94    35649.500000
6322.57    35536.620000
6324.21    35555.620000
6325.84    36068.910000
6327.48    36159.460000
6329.11    36195.560000
6330.74    36278.850000
6332.38    36674.360000
6334.01    35913.830000
6335.65    35693.200000
6337.28    35558.540000
6338.91    35428.830000
6340.55    35337.620000
6342.18    35267.250000
6343.81    35199.780000
6345.45    35640.710000
6347.08    35494.880000
6348.72    35677.900000
6350.35    35944.090000
6351.98    35605.940000
6353.62    35590.960000
6355.25    35574.710000
6356.89    35480.210000
6358.52    35574.040000
6360.15    35591.280000
6361.79    35854.840000
6363.42    36439.250000
6365.06    36202.460000
6366.69    36191.790000
6368.32    36275.600000
6369.96    36578.890000
6371.59    36866.510000
6373.22    36675.080000
6374.86    36462.920000
6376.49    36476.490000
6378.13    36313.140000
6379.76    36208.790000
6381.39    36119.210000
6383.03    36212.840000
6384.66    36333.540000
6386.30    36342.570000
6387.93    36345.380000
6389.56    36800.720000
6391.20    36524.980000
6392.83    36109.490000
6394.46    35765.200000
6396.10    36798.400000
6397.73    36018.020000
6399.37    35792.570000
6401.00    35799.810000
6402.63    36297.170000
6404.27    35983.540000
6405.90    36070.500000
6407.53    36381.410000
6409.17    37010.710000
6410.80    37118.880000
6412.44    37357.950000
6414.07    37712.810000
6415.70    38167.460000
6417.34    38301.970000
6418.97    38102.190000
6420.61    37543.110000
6422.24    37591.960000
6423.87    37901.280000
6425.51    37954.590000
6427.14    37542.210000
6428.77    37721.860000
6430.41    37923.730000
6432.04    38091.500000
6433.68    38231.280000
6435.31    37828.580000
6436.94    37766.990000
6438.58    37720.040000
6440.21    37694.640000
6441.85    37949.540000
6443.48    37943.050000
6445.11    37824.880000
6446.75    37907.720000
6448.38    37804.530000
6450.02    37772.140000
6451.65    37729.760000
6453.28    38256.430000
6454.92    37927.540000
6456.55    37854.210000
6458.19    37890.270000
6459.82    37545.670000
6461.45    37273.340000
6463.09    37335.160000
6464.72    37727.540000
6466.35    37719.320000
6467.99    37828.760000
6469.62    37850.120000
6471.26    37879.790000
6472.89    37007.190000
6474.52    37215.730000
6476.16    37426.180000
6477.79    37592.670000
6479.42    37745.410000
6481.06    37492.030000
6482.69    37280.650000
6484.33    37516.350000
6485.96    37806.040000
6487.59    37647.610000
6489.23    37385.800000
6490.86    37258.270000
6492.49    37789.550000
6494.13    38028.360000
6495.76    38082.960000
6497.40    37924.590000
6499.03    37998.520000
6500.66    38366.070000
6502.30    38758.360000
6503.93    38679.880000
6505.57    38691.910000
6507.20    38458.330000
6508.83    38032.500000
6510.47    38769.180000
6512.10    38702.300000
6513.73    38563.520000
6515.37    38336.550000
6517.00    37928.830000
6518.64    38322.440000
6520.27    38534.160000
6521.90    38683.040000
6523.54    38325.810000
6525.17    38263.080000
6526.81    38162.860000
6528.44    38084.230000
6530.07    37759.510000
6531.71    37390.180000
6533.34    37121.650000
6534.98    37272.230000
6536.61    37031.840000
6538.24    37124.950000
6539.88    37200.160000
6541.51    37079.250000
6543.15    37228.240000
6544.78    37458.160000
6546.41    37667.620000
6548.05    37990.890000
6549.68    38135.310000
6551.31    38283.120000
6552.95    38426.820000
6554.58    38988.610000
6556.22    38848.840000
6557.85    38766.210000
6559.48    38666.200000
6561.12    39532.960000
6562.75    39029.430000
6564.39    38958.120000
6566.02    39158.430000
6567.65    39258.810000
6569.29    39250.700000
6570.92    39160.810000
6572.55    38955.220000
6574.19    39403.790000
6575.82    39462.820000
6577.45    39548.620000
6579.09    39781.790000
6580.72    39627.330000
6582.36    39866.830000
6583.99    39854.070000
6585.62    39377.510000
6587.26    39035.340000
6588.89    38961.100000
6590.53    38908.730000
6592.16    38965.430000
6593.79    38162.180000
6595.43    37739.480000
6597.06    37416.200000
6598.69    37484.600000
6600.33    37089.010000
6601.96    36867.980000
6603.60    36696.210000
6605.23    36684.980000
6606.86    36427.980000
6608.50    36560.690000
6610.13    36831.750000
6611.77    37286.250000
6613.40    37722.160000
6615.03    37894.280000
6616.67    37817.630000
6618.30    38134.180000
6619.94    38499.690000
6621.57    38881.870000
6623.20    39273.710000
6624.84    39339.470000
6626.47    39290.670000
6628.10    39122.370000
6629.74    38930.400000
6631.37    38835.860000
6633.01    39043.110000
6634.64    39039.430000
6636.27    38687.910000
6637.91    38332.290000
6639.54    38175.660000
6641.18    38187.490000
6642.81    38825.850000
6644.44    38672.540000
6646.08    38773.660000
6647.71    38837.520000
6649.35    38801.970000
6650.98    38271.180000
6652.61    38631.070000
6654.25    39170.730000
6655.88    39351.730000
6657.51    38856.190000
6659.15    38830.710000
6660.78    38947.110000
6662.42    39263.450000
6664.05    38450.860000
6665.68    38356.140000
6667.32    38646.550000
6668.95    38306.270000
6670.59    37759.090000
6672.22    37559.680000
6673.85    37672.020000
6675.49    37663.200000
6677.12    37687.210000
6678.75    37708.300000
6680.39    37856.480000
6682.02    37890.160000
6683.65    37964.570000
6685.29    38044.220000
6686.92    38207.180000
6688.56    38015.710000
6690.19    37809.230000
6691.82    37577.940000
6693.46    37463.830000
6695.09    37316.720000
6696.73    37322.960000
6698.36    37216.170000
6699.99    36743.380000
6701.63    36675.120000
6703.26    36741.490000
6704.90    36811.620000
6706.53    37070.240000
6708.16    36958.580000
6709.80    36609.570000
6711.43    36228.820000
6713.06    36911.590000
6714.70    36709.100000
6716.33    36727.680000
6717.97    36773.590000
6719.60    36103.440000
6721.23    36380.620000
6722.87    36485.950000
6724.50    36340.320000
6726.14    36252.750000
6727.77    36707.580000
6729.40    36903.800000
6731.04    36821.470000
6732.67    36479.220000
6734.31    36500.050000
6735.94    36320.500000
6737.57    35873.870000
6739.21    35838.500000
6740.84    36170.790000
6742.47    36156.440000
6744.11    35383.160000
6745.74    35351.740000
6747.38    35588.710000
6749.01    35705.960000
6750.64    35333.950000
6752.28    35445.570000
6753.91    35388.450000
6755.55    35204.990000
6757.18    34899.550000
6758.81    34881.250000
6760.45    35009.690000
6762.08    35063.390000
6763.71    34423.600000
6765.35    34567.770000
6766.98    34814.070000
6768.62    35049.560000
6770.25    35363.060000
6771.88    35076.220000
6773.52    34906.170000
6775.15    34766.180000
6776.78    34932.510000
6778.42    34804.820000
6780.05    34733.460000
6781.69    34709.330000
6783.32    34450.580000
6784.95    34303.980000
6786.59    34161.130000
6788.22    34129.740000
6789.85    33811.110000
6791.49    33843.140000
6793.12    33914.500000
6794.76    34180.700000
6796.39    34054.610000
6798.02    34045.280000
6799.66    34067.890000
6801.29    34287.840000
6802.93    34321.610000
6804.56    34227.190000
6806.19    34101.250000
6807.83    34237.570000
6809.46    34078.770000
6811.10    33874.500000
6812.73    33717.450000
6814.36    34214.040000
6816.00    34152.160000
6817.63    34050.770000
6819.27    33887.890000
6820.90    34118.950000
6822.53    33629.450000
6824.17    33438.140000
6825.80    33365.080000
6827.44    33311.000000
6829.07    33245.050000
6830.70    33238.000000
6832.34    33261.140000
6833.97    33417.160000
6835.60    33157.280000
6837.24    32958.550000
6838.87    32972.280000
6840.51    32756.570000
6842.14    32781.980000
6843.77    32899.730000
6845.41    33291.930000
6847.04    32937.040000
6848.67    33035.150000
6850.31    33041.240000
6851.94    32799.210000
6853.58    32107.400000
6855.21    32267.640000
6856.84    32501.350000
6858.48    32432.290000
6860.11    32744.990000
6861.74    33616.650000
6863.38    34321.150000
6865.01    33101.970000
6866.65    32580.810000
6868.28    30396.060000
6869.91    27679.180000
6871.55    28658.840000
6873.18    27463.730000
6874.82    28623.630000
6876.45    31172.590000
6878.08    31849.250000
6879.72    31731.140000
6881.35    31688.710000
6882.98    31721.790000
6884.62    33308.410000
6886.25    32402.360000
6887.89    31765.010000
6889.52    31536.050000
6891.15    30149.740000
6892.79    30462.240000
6894.42    30940.610000
6896.06    31671.070000
6897.69    30430.100000
6899.32    30623.060000
6900.96    30872.890000
6902.59    31070.190000
6904.23    30010.060000
6905.86    29338.710000
6907.49    28824.610000
6909.13    28759.540000
6910.76    29400.020000
6912.40    29596.240000
6914.03    29661.960000
6915.66    29928.460000
6917.30    29800.240000
6918.93    29722.420000
6920.56    29610.270000
6922.20    29229.800000
6923.83    29452.830000
6925.47    29689.760000
6927.10    29853.520000
6928.73    29438.380000
6930.37    29238.260000
6932.00    29333.400000
6933.64    29592.130000
6935.27    29552.900000
6936.90    29252.150000
6938.54    29047.620000
6940.17    28951.710000
6941.80    29043.010000
6943.44    29201.750000
6945.07    29368.130000
6946.70    29651.830000
6948.34    29779.620000
6949.97    29772.830000
6951.61    29641.010000
6953.24    29367.860000
6954.88    28961.630000
6956.51    28920.030000
6958.14    28954.660000
6959.78    29119.900000
6961.41    29109.660000
6963.04    29236.970000
6964.68    29376.470000
6966.31    29665.090000
6967.94    29601.070000
6969.58    29629.200000
6971.21    29666.780000
6972.85    29851.180000
6974.48    29545.140000
6976.11    29540.080000
6977.75    29607.450000
6979.38    29550.810000
6981.02    29491.560000
6982.65    29458.380000
6984.28    29393.530000
6985.92    28861.480000
6987.55    28684.420000
6989.19    28601.250000
6990.82    28605.540000
6992.45    28473.200000
6994.09    28448.200000
6995.72    28454.890000
6997.35    28606.050000
6998.99    28680.720000
7000.62    28585.170000
7002.26    28532.720000
7003.89    28641.370000
7005.52    28532.590000
7007.16    28612.610000
7008.79    28713.760000
7010.43    28931.800000
7012.06    28612.120000
7013.69    28447.240000
7015.33    28342.940000
7016.96    28579.290000
7018.60    28640.570000
7020.23    28451.450000
7021.86    28214.070000
7023.50    28325.760000
7025.13    28131.960000
7026.76    28043.560000
7028.40    28012.720000
7030.03    28805.450000
7031.67    29018.180000
7033.30    29090.400000
7034.93    29004.140000
7036.57    28431.000000
7038.20    28345.890000
7039.84    28433.720000
7041.47    28668.180000
7043.10    28554.280000
7044.74    28558.480000
7046.37    28493.250000
7048.00    28445.050000
7049.64    28324.260000
7051.27    28176.470000
7052.90    28020.940000
7054.54    27930.920000
7056.17    28035.270000
7057.81    28190.710000
7059.44    28237.750000
7061.07    28122.220000
7062.71    27848.980000
7064.34    27886.250000
7065.98    27991.390000
7067.61    28206.810000
7069.24    28192.290000
7070.88    28225.930000
7072.51    28229.650000
7074.15    28264.050000
7075.78    28123.210000
7077.41    28339.860000
7079.05    28648.070000
7080.68    28769.310000
7082.31    28865.660000
7083.95    28963.430000
7085.58    28976.510000
7087.22    28594.840000
7088.85    28559.330000
7090.48    28563.290000
7092.12    28521.430000
7093.75    28116.400000
7095.39    27935.840000
7097.02    27866.860000
7098.65    27909.290000
7100.29    27093.440000
7101.92    26864.920000
7103.56    26747.580000
7105.19    26814.480000
7106.82    26770.070000
7108.46    26509.710000
7110.09    26257.850000
7111.72    26183.930000
7113.36    26409.840000
7114.99    26372.370000
7116.63    26249.460000
7118.26    26093.920000
7119.89    26406.490000
7121.53    26562.460000
7123.16    26560.730000
7124.80    26172.150000
7126.43    25941.510000
7128.06    25743.490000
7129.70    25547.170000
7131.33    25472.770000
7132.96    25280.880000
7134.60    25102.240000
7136.23    24879.440000
7137.87    24835.480000
7139.50    24607.180000
7141.13    24742.640000
7142.77    25092.520000
7144.40    24973.930000
7146.03    24882.860000
7147.67    24793.880000
7149.30    24670.960000
7150.94    24142.080000
7152.57    24209.430000
7154.20    24194.980000
7155.84    24130.190000
7157.47    24296.120000
7159.10    24243.130000
7160.74    24044.450000
7162.37    23631.340000
7164.01    22772.380000
7165.64    22331.490000
7167.27    21912.840000
7168.91    21389.030000
7170.54    20725.700000
7172.18    20478.310000
7173.81    20509.480000
7175.44    21580.660000
7177.08    21887.110000
7178.71    21707.090000
7180.35    21168.910000
7181.98    19440.840000
7183.61    18880.600000
7185.25    18793.110000
7186.88    18935.550000
7188.52    19788.840000
7190.15    19875.460000
7191.78    19905.460000
7193.42    19878.160000
7195.05    19978.710000
7196.69    19758.110000
7198.32    19654.380000
7199.95    19657.010000
7201.59    20013.180000
7203.22    20162.820000
7204.85    20384.050000
7206.49    20798.270000
7208.12    21558.940000
7209.76    22117.170000
7211.39    22584.680000
7213.02    22989.470000
7214.66    23094.330000
7216.29    22978.480000
7217.92    22952.110000
7219.56    23377.090000
7221.19    23596.580000
7222.83    23151.190000
7224.46    22659.440000
7226.09    22622.660000
7227.73    22497.090000
7229.36    22079.980000
7230.99    21439.990000
7232.63    20239.850000
7234.26    20019.300000
7235.90    20261.100000
7237.53    20641.780000
7239.16    20708.620000
7240.80    20932.820000
7242.43    21032.170000
7244.07    21021.940000
7245.70    21021.700000
7247.33    21062.340000
7248.97    20989.560000
7250.60    20806.190000
7252.23    20716.780000
7253.87    21014.510000
7255.50    21203.410000
7257.14    21353.560000
7258.77    21205.350000
7260.40    21214.730000
7262.04    21256.730000
7263.67    21416.370000
7265.31    21585.380000
7266.94    21660.550000
7268.57    21764.690000
7270.21    22078.930000
7271.84    21512.130000
7273.48    21351.460000
7275.11    21184.670000
7276.74    20775.080000
7278.38    21479.710000
7280.01    22198.930000
7281.65    22806.960000
7283.28    22942.840000
7284.91    22553.670000
7286.55    22134.200000
7288.18    21683.970000
7289.81    21500.090000
7291.45    21702.050000
7293.08    21983.240000
7294.72    22289.000000
7296.35    22944.430000
7297.98    22674.510000
7299.62    22488.020000
7301.25    22320.000000
7302.89    22016.620000
7304.52    21992.850000
7306.15    22209.230000
7307.79    22704.880000
7309.42    22488.610000
7311.05    22491.760000
7312.69    22546.460000
7314.32    22718.940000
7315.95    22559.330000
7317.59    22589.490000
7319.22    22741.640000
7320.86    23261.800000
7322.49    23615.270000
7324.12    23668.950000
7325.76    23577.740000
7327.39    23258.200000
7329.03    23143.550000
7330.66    23094.150000
7332.29    23030.220000
7333.93    23019.850000
7335.56    23063.290000
7337.19    23478.390000
7338.83    24019.970000
7340.46    24574.030000
7342.10    24305.480000
7343.73    24148.300000
7345.36    23992.850000
7347.00    23892.540000
7348.63    23696.890000
7350.27    23767.690000
7351.90    23977.480000
7353.53    24169.960000
7355.17    23879.740000
7356.80    23848.370000
7358.44    24052.560000
7360.07    23796.750000
7361.70    23751.040000
7363.34    23826.330000
7364.97    24176.860000
7366.60    24214.440000
7368.24    24199.860000
7369.87    24207.090000
7371.51    24350.950000
7373.14    24371.960000
7374.77    24316.710000
7376.41    24339.040000
7378.04    24751.330000
7379.68    24590.820000
7381.31    24489.440000
7382.94    24489.250000
7384.58    25065.280000
7386.21    25156.780000
7387.85    25062.230000
7389.48    24875.290000
7391.11    24698.350000
7392.75    24558.590000
7394.38    24490.550000
7396.01    24421.370000
7397.65    24628.350000
7399.28    24701.180000
7400.91    24700.140000
7402.55    24624.570000
7404.18    24593.560000
7405.82    24555.840000
7407.45    24407.250000
7409.09    24154.700000
7410.72    24356.930000
7412.35    24563.700000
7413.99    24684.580000
7415.62    24786.270000
7417.25    24737.440000
7418.89    25048.020000
7420.52    25271.420000
7422.15    25364.320000
7423.79    25105.130000
7425.42    24775.970000
7427.06    24610.120000
7428.69    25016.250000
7430.32    24807.680000
7431.96    24479.480000
7433.59    24244.940000
7435.23    24577.120000
7436.86    24288.510000
7438.49    24329.520000
7440.13    24412.560000
7441.76    24462.470000
7443.40    24575.960000
7445.03    24682.690000
7446.66    24771.210000
7448.30    24845.250000
7449.93    24423.590000
7451.56    24232.470000
7453.20    24128.530000
7454.83    24266.320000
7456.47    24347.560000
7458.10    24290.400000
7459.73    24039.790000
7461.37    24162.010000
7463.00    23955.190000
7464.64    23857.430000
7466.27    23891.110000
7467.90    24160.580000
7469.54    24047.620000
7471.17    23970.850000
7472.81    24051.120000
7474.44    23779.750000
7476.07    24198.960000
7477.71    24450.230000
7479.34    24275.370000
7480.97    24070.730000
7482.61    24171.360000
7484.24    24280.730000
7485.88    24307.150000
7487.51    23643.230000
7489.14    23770.650000
7490.78    23925.650000
7492.41    23419.420000
7494.05    23742.960000
7495.68    23562.240000
7497.31    23276.200000
7498.95    23971.920000
7500.58    23673.360000
7502.21    23555.190000
7503.85    23502.920000
7505.48    24018.980000
7507.12    23737.370000
7508.75    23407.140000
7510.38    22998.500000
7512.02    23411.210000
7513.65    23201.940000
7515.28    23230.260000
7516.92    23508.830000
7518.55    23255.590000
7520.19    23433.090000
7521.82    23613.420000
7523.45    23881.430000
7525.09    23545.160000
7526.72    23436.690000
7528.35    23390.260000
7529.99    23546.470000
7531.62    23061.810000
7533.26    22845.400000
7534.89    22733.030000
7536.52    22916.410000
7538.16    22827.380000
7539.79    22641.260000
7541.43    22434.180000
7543.06    22411.930000
7544.69    22373.910000
7546.33    22550.050000
7547.96    22727.930000
7549.60    22486.600000
7551.23    22321.000000
7552.86    22344.800000
7554.50    22439.930000
7556.13    22871.010000
7557.77    22810.930000
7559.40    22846.500000
7561.03    22896.290000
7562.67    22782.860000
7564.30    22939.640000
7565.93    22976.920000
7567.57    22885.750000
7569.20    22477.050000
7570.84    22421.760000
7572.47    22467.570000
7574.10    22742.030000
7575.74    22648.360000
7577.37    26693.050000
7579.01    28817.380000
7580.64    26989.250000
7582.27    31548.070000
7583.91    25875.120000
7585.54    12738.430000
7587.17    -18916.210000
7588.81     0.000000
7590.44     0.000000
7592.08     0.000000
7593.71     0.000000
7595.34     0.000000
7596.98     0.000000
