#Wavelength     Flux
#[Angstrom]   [Counts]
3932.25    12680.870000
3933.89    12936.040000
3935.52    12059.120000
3937.16    11798.050000
3938.79    11092.880000
3940.42    10615.010000
3942.06    10671.680000
3943.69    9296.546000
3945.32    8316.665000
3946.96    7636.782000
3948.59    6217.475000
3950.23    4610.586000
3951.86    4326.987000
3953.49    3991.229000
3955.13    4871.626000
3956.76    5949.122000
3958.39    7457.551000
3960.03    7824.728000
3961.66    8902.395000
3963.30    9244.508000
3964.93    10103.150000
3966.56    10838.450000
3968.20    12018.100000
3969.83    12663.360000
3971.47    12245.320000
3973.10    12435.180000
3974.73    12759.820000
3976.37    12295.250000
3978.00    11254.060000
3979.64    9783.369000
3981.27    8937.695000
3982.90    7634.132000
3984.54    6215.458000
3986.17    5200.262000
3987.80    4948.522000
3989.44    5539.343000
3991.07    6740.298000
3992.71    8298.351000
3994.34    9898.453000
3995.97    11877.470000
3997.61    12728.950000
3999.24    13302.170000
4000.88    13728.120000
4002.51    14437.000000
4004.14    14371.740000
4005.78    14653.260000
4007.41    15452.820000
4009.04    15929.570000
4010.68    16222.320000
4012.31    16410.270000
4013.95    15961.560000
4015.58    16180.100000
4017.21    16648.790000
4018.85    16665.320000
4020.48    16355.790000
4022.11    17007.190000
4023.75    17074.120000
4025.38    16603.150000
4027.02    16680.290000
4028.65    16872.660000
4030.28    17663.760000
4031.92    17500.220000
4033.55    17701.340000
4035.19    17517.570000
4036.82    17772.590000
4038.45    17737.940000
4040.09    17879.420000
4041.72    17773.220000
4043.36    18128.340000
4044.99    17826.150000
4046.62    17353.370000
4048.26    17600.550000
4049.89    16463.220000
4051.52    15320.770000
4053.16    15214.680000
4054.79    16410.850000
4056.43    17695.800000
4058.06    18234.130000
4059.69    17934.390000
4061.33    17646.370000
4062.96    16704.400000
4064.59    15670.420000
4066.23    15538.750000
4067.86    15987.110000
4069.50    16599.550000
4071.13    17277.240000
4072.76    17076.070000
4074.40    16524.540000
4076.03    16142.480000
4077.67    16491.770000
4079.30    15616.650000
4080.93    15491.550000
4082.57    15226.980000
4084.20    15047.100000
4085.84    15443.110000
4087.47    16356.590000
4089.10    16722.910000
4090.74    16549.480000
4092.37    16549.560000
4094.01    16616.440000
4095.64    15521.320000
4097.27    15557.250000
4098.91    16153.530000
4100.54    16578.040000
4102.17    17647.720000
4103.81    17821.880000
4105.44    18038.030000
4107.07    18760.740000
4108.71    19283.860000
4110.34    19028.040000
4111.98    18809.250000
4113.61    18144.520000
4115.24    16818.850000
4116.88    16293.880000
4118.51    15724.930000
4120.15    14768.060000
4121.78    14609.700000
4123.41    15348.190000
4125.05    16362.220000
4126.68    16881.900000
4128.31    16874.400000
4129.95    17073.660000
4131.58    17053.910000
4133.22    17528.340000
4134.85    17290.090000
4136.48    17210.250000
4138.12    17355.150000
4139.75    16861.920000
4141.39    16861.160000
4143.02    16831.670000
4144.65    16963.320000
4146.29    16772.450000
4147.92    16574.520000
4149.56    16288.330000
4151.19    15676.760000
4152.82    15201.990000
4154.46    15664.610000
4156.09    16392.640000
4157.73    17037.960000
4159.36    17104.970000
4160.99    16631.110000
4162.63    15732.450000
4164.26    15241.250000
4165.89    15721.050000
4167.53    16050.840000
4169.16    15709.470000
4170.80    15475.560000
4172.43    15323.320000
4174.06    15760.640000
4175.70    15612.480000
4177.33    15949.590000
4178.97    16580.220000
4180.60    16741.760000
4182.23    17260.380000
4183.87    17524.740000
4185.50    16996.300000
4187.13    16730.480000
4188.77    16328.740000
4190.40    16190.350000
4192.04    15524.580000
4193.67    15054.140000
4195.30    15298.450000
4196.94    15488.510000
4198.57    15399.750000
4200.20    15979.550000
4201.84    16200.850000
4203.47    16073.790000
4205.11    16582.660000
4206.74    16761.330000
4208.37    16755.850000
4210.01    16992.890000
4211.64    17405.020000
4213.27    17008.400000
4214.91    16170.710000
4216.54    15897.790000
4218.18    15699.620000
4219.81    15553.140000
4221.44    15470.010000
4223.08    15931.130000
4224.71    16140.180000
4226.35    16948.730000
4227.98    17777.430000
4229.61    17967.210000
4231.25    17915.340000
4232.88    17636.630000
4234.52    17390.670000
4236.15    17456.450000
4237.78    18060.600000
4239.42    18677.190000
4241.05    18434.890000
4242.69    17302.910000
4244.32    15859.240000
4245.95    14588.530000
4247.59    14372.130000
4249.22    15143.140000
4250.85    16399.290000
4252.49    17340.730000
4254.12    17469.480000
4255.76    17326.450000
4257.39    17391.300000
4259.02    17716.070000
4260.66    18123.700000
4262.29    18725.310000
4263.93    19357.930000
4265.56    18890.300000
4267.19    18019.650000
4268.83    17642.450000
4270.46    17516.630000
4272.09    17121.770000
4273.73    16885.940000
4275.36    17220.800000
4277.00    17156.630000
4278.63    17217.790000
4280.26    17477.930000
4281.90    17737.110000
4283.53    18178.230000
4285.16    18576.620000
4286.80    18761.310000
4288.43    17822.190000
4290.07    16822.940000
4291.70    15672.260000
4293.33    15175.970000
4294.97    15455.950000
4296.60    15973.750000
4298.24    16981.770000
4299.87    17159.620000
4301.50    17471.010000
4303.14    17546.510000
4304.77    17106.810000
4306.40    16952.120000
4308.04    16722.230000
4309.67    15851.490000
4311.31    15371.830000
4312.94    15915.440000
4314.57    16039.240000
4316.21    15944.200000
4317.84    15064.780000
4319.48    13745.010000
4321.11    12923.590000
4322.74    12413.980000
4324.38    12302.140000
4326.01    11977.760000
4327.65    11739.560000
4329.28    11757.740000
4330.91    12657.860000
4332.55    13981.690000
4334.18    15825.740000
4335.81    17739.520000
4337.45    19658.880000
4339.08    21084.200000
4340.72    21196.310000
4342.35    19782.430000
4343.98    18224.510000
4345.62    17495.040000
4347.25    17686.890000
4348.89    18757.710000
4350.52    20119.000000
4352.15    21441.590000
4353.79    21502.250000
4355.42    20971.860000
4357.05    20055.080000
4358.69    19107.280000
4360.32    18112.240000
4361.96    17707.260000
4363.59    18193.840000
4365.22    19398.440000
4366.86    20535.420000
4368.49    20691.930000
4370.12    20871.850000
4371.76    20140.890000
4373.39    19254.180000
4375.03    19614.960000
4376.66    19670.300000
4378.29    20070.770000
4379.93    20865.640000
4381.56    21238.160000
4383.20    21830.410000
4384.83    21941.040000
4386.46    22001.090000
4388.10    21638.610000
4389.73    20932.380000
4391.36    20477.380000
4393.00    19751.180000
4394.63    19167.450000
4396.27    19434.810000
4397.90    19493.580000
4399.53    19267.040000
4401.17    18621.910000
4402.80    17375.410000
4404.44    16857.070000
4406.07    16826.230000
4407.70    17346.340000
4409.34    18199.810000
4410.97    18323.670000
4412.60    18770.740000
4414.24    19901.220000
4415.87    19989.390000
4417.51    19806.100000
4419.14    20062.480000
4420.77    20652.620000
4422.41    19873.020000
4424.04    18864.650000
4425.68    18525.680000
4427.31    18387.840000
4428.94    19150.220000
4430.58    20046.000000
4432.21    21094.680000
4433.85    21773.390000
4435.48    21034.340000
4437.11    20586.190000
4438.75    20918.170000
4440.38    21670.140000
4442.02    21895.700000
4443.65    21757.710000
4445.28    21508.140000
4446.92    21217.410000
4448.55    21295.310000
4450.18    21653.540000
4451.82    21777.050000
4453.45    21405.930000
4455.09    20908.530000
4456.72    20869.700000
4458.35    21120.700000
4459.99    21905.980000
4461.62    22546.750000
4463.25    22081.580000
4464.89    22212.580000
4466.52    23058.390000
4468.16    23179.390000
4469.79    23671.670000
4471.42    23978.740000
4473.06    22964.470000
4474.69    21670.600000
4476.32    20806.320000
4477.96    20171.760000
4479.59    19991.090000
4481.23    20124.410000
4482.86    20310.450000
4484.49    21022.610000
4486.13    21585.520000
4487.76    21926.670000
4489.40    22071.000000
4491.03    22190.190000
4492.66    23183.490000
4494.30    23783.870000
4495.93    23838.240000
4497.56    24206.830000
4499.20    24529.960000
4500.83    24213.540000
4502.47    23557.020000
4504.10    23142.380000
4505.73    23574.180000
4507.37    24611.080000
4509.00    24414.130000
4510.64    23704.710000
4512.27    23332.850000
4513.90    23274.280000
4515.54    23096.610000
4517.17    22773.760000
4518.81    23372.320000
4520.44    24235.300000
4522.07    24840.440000
4523.71    25017.100000
4525.34    25406.180000
4526.98    25952.570000
4528.61    26041.690000
4530.24    25737.580000
4531.88    25689.680000
4533.51    25536.610000
4535.14    24877.850000
4536.78    24526.570000
4538.41    24699.830000
4540.05    24862.740000
4541.68    24772.620000
4543.31    24669.850000
4544.95    23992.350000
4546.58    23289.230000
4548.22    22377.460000
4549.85    21392.340000
4551.48    21637.780000
4553.12    21490.790000
4554.75    21463.830000
4556.38    22199.440000
4558.02    23150.130000
4559.65    23899.260000
4561.29    24522.830000
4562.92    24872.950000
4564.55    24377.130000
4566.19    24058.890000
4567.82    23766.740000
4569.45    23320.890000
4571.09    23451.400000
4572.72    23729.560000
4574.36    23414.500000
4575.99    23654.550000
4577.62    24343.770000
4579.26    24963.660000
4580.89    25386.860000
4582.52    25640.760000
4584.16    25553.780000
4585.79    25523.450000
4587.43    25391.350000
4589.06    25387.690000
4590.69    25387.670000
4592.33    25394.920000
4593.96    25492.550000
4595.60    25348.630000
4597.23    25342.890000
4598.86    25233.310000
4600.50    24692.160000
4602.13    24164.120000
4603.77    23940.000000
4605.40    23680.620000
4607.03    24059.140000
4608.67    24698.820000
4610.30    24565.680000
4611.94    24480.960000
4613.57    24807.710000
4615.20    24799.480000
4616.84    24437.290000
4618.47    24031.260000
4620.10    24276.550000
4621.74    24467.350000
4623.37    24470.060000
4625.01    24863.930000
4626.64    25132.940000
4628.27    25602.340000
4629.91    25728.770000
4631.54    26102.540000
4633.18    26381.490000
4634.81    25977.960000
4636.44    26069.070000
4638.08    26481.830000
4639.71    26788.230000
4641.34    26836.420000
4642.98    26927.430000
4644.61    26529.540000
4646.25    26080.850000
4647.88    26348.160000
4649.51    26341.540000
4651.15    26681.560000
4652.78    26221.260000
4654.41    26122.310000
4656.05    25809.820000
4657.68    25453.700000
4659.32    24958.470000
4660.95    24517.140000
4662.58    24584.000000
4664.22    24772.780000
4665.85    24657.810000
4667.49    23995.380000
4669.12    24153.800000
4670.75    23696.710000
4672.39    23877.960000
4674.02    24191.530000
4675.65    24737.640000
4677.29    24881.240000
4678.92    25151.030000
4680.56    25479.930000
4682.19    25560.210000
4683.82    25666.660000
4685.46    25258.370000
4687.09    24275.660000
4688.73    23782.310000
4690.36    23077.020000
4691.99    22847.650000
4693.63    23366.940000
4695.26    23965.640000
4696.90    24242.330000
4698.53    24954.520000
4700.16    24518.030000
4701.80    23903.360000
4703.43    24116.320000
4705.06    23861.440000
4706.70    24321.210000
4708.33    24662.130000
4709.97    24505.790000
4711.60    24454.410000
4713.23    24620.470000
4714.87    24808.460000
4716.50    24497.520000
4718.14    24207.080000
4719.77    24043.840000
4721.40    24481.610000
4723.04    24023.340000
4724.67    23001.120000
4726.30    22977.730000
4727.94    23442.890000
4729.57    23641.720000
4731.21    23582.270000
4732.84    23907.240000
4734.47    24429.890000
4736.11    24288.890000
4737.74    24193.660000
4739.38    24854.120000
4741.01    25500.700000
4742.64    26100.040000
4744.28    26263.330000
4745.91    25938.860000
4747.54    25766.960000
4749.18    25000.910000
4750.81    24677.820000
4752.45    24578.450000
4754.08    24205.920000
4755.71    23855.110000
4757.35    24676.400000
4758.98    25194.460000
4760.61    25149.410000
4762.25    25346.030000
4763.88    25645.190000
4765.52    26006.650000
4767.15    25924.870000
4768.78    26435.360000
4770.42    26054.730000
4772.05    26117.170000
4773.69    26354.500000
4775.32    26044.110000
4776.95    25380.510000
4778.59    25475.320000
4780.22    25566.770000
4781.85    25655.260000
4783.49    24720.980000
4785.12    24885.010000
4786.76    24585.740000
4788.39    24189.260000
4790.02    23371.180000
4791.66    24263.690000
4793.29    24763.110000
4794.93    24544.280000
4796.56    25300.460000
4798.19    25829.190000
4799.83    25773.410000
4801.46    25457.190000
4803.10    25732.480000
4804.73    25185.070000
4806.36    24884.640000
4808.00    24122.730000
4809.63    24465.460000
4811.26    24509.580000
4812.90    25354.360000
4814.53    25744.700000
4816.17    25580.850000
4817.80    25954.900000
4819.43    26220.890000
4821.07    26140.320000
4822.70    26180.070000
4824.34    26263.810000
4825.97    26258.870000
4827.60    25916.450000
4829.24    25501.200000
4830.87    25249.530000
4832.50    26052.220000
4834.14    25814.390000
4835.77    25881.000000
4837.41    25790.080000
4839.04    26225.030000
4840.67    26250.230000
4842.31    26590.970000
4843.94    26229.060000
4845.57    26031.300000
4847.21    25719.690000
4848.84    25502.660000
4850.48    24946.130000
4852.11    25345.660000
4853.74    25750.220000
4855.38    25436.270000
4857.01    25358.650000
4858.65    25348.050000
4860.28    25636.320000
4861.91    25329.900000
4863.55    25366.110000
4865.18    24929.340000
4866.81    25346.150000
4868.45    25585.440000
4870.08    25457.040000
4871.72    25405.500000
4873.35    25808.670000
4874.98    25255.800000
4876.62    24724.670000
4878.25    24478.480000
4879.89    24163.370000
4881.52    23136.540000
4883.15    22643.960000
4884.79    22391.520000
4886.42    22508.610000
4888.06    22916.860000
4889.69    23600.100000
4891.32    23719.870000
4892.96    23094.290000
4894.59    23401.720000
4896.23    23049.880000
4897.86    23159.840000
4899.49    24100.650000
4901.13    25172.590000
4902.76    24679.290000
4904.39    24832.070000
4906.03    24352.850000
4907.66    24522.560000
4909.30    24227.320000
4910.93    23423.560000
4912.56    23812.320000
4914.20    23215.110000
4915.83    24021.270000
4917.46    25457.250000
4919.10    26070.770000
4920.73    26433.890000
4922.37    26842.200000
4924.00    26286.520000
4925.63    25645.990000
4927.27    26160.070000
4928.90    25852.840000
4930.53    25810.050000
4932.17    26094.460000
4933.80    25486.030000
4935.44    25324.330000
4937.07    25255.440000
4938.70    24878.230000
4940.34    24630.920000
4941.97    24120.610000
4943.61    24243.330000
4945.24    23641.320000
4946.87    24159.090000
4948.51    25177.940000
4950.14    25876.850000
4951.77    26050.330000
4953.41    25963.590000
4955.04    26039.460000
4956.68    26486.560000
4958.31    26076.280000
4959.94    25868.580000
4961.58    25304.160000
4963.21    24815.610000
4964.85    25801.950000
4966.48    25687.320000
4968.11    26447.920000
4969.75    26599.840000
4971.38    27049.340000
4973.02    27092.920000
4974.65    26804.450000
4976.28    26803.180000
4977.92    26079.590000
4979.55    25701.390000
4981.19    25472.020000
4982.82    25252.630000
4984.45    24703.330000
4986.09    25829.330000
4987.72    25337.770000
4989.35    25013.540000
4990.99    24394.670000
4992.62    25021.320000
4994.26    25437.360000
4995.89    25488.760000
4997.52    25348.920000
4999.16    25644.820000
5000.79    25239.650000
5002.43    24969.780000
5004.06    24070.540000
5005.69    22768.220000
5007.33    22937.240000
5008.96    23252.520000
5010.59    23475.560000
5012.23    23837.070000
5013.86    24226.270000
5015.50    24603.270000
5017.13    25035.730000
5018.76    24953.890000
5020.40    24978.640000
5022.03    24645.160000
5023.66    23858.150000
5025.30    24064.430000
5026.93    23983.780000
5028.57    24658.570000
5030.20    24909.130000
5031.83    24507.190000
5033.47    24627.870000
5035.10    24234.450000
5036.73    23572.520000
5038.37    22816.660000
5040.00    22766.270000
5041.64    22774.080000
5043.27    22937.400000
5044.90    22537.360000
5046.54    23215.540000
5048.17    23136.370000
5049.81    22991.450000
5051.44    23763.420000
5053.07    24047.170000
5054.71    24200.780000
5056.34    24155.940000
5057.98    24339.260000
5059.61    23810.080000
5061.24    23235.800000
5062.88    22728.400000
5064.51    22333.320000
5066.15    22722.310000
5067.78    22365.150000
5069.41    22958.220000
5071.05    23594.960000
5072.68    23812.680000
5074.31    23426.340000
5075.95    23682.210000
5077.58    24068.310000
5079.22    24586.340000
5080.85    25117.820000
5082.48    25267.180000
5084.12    24928.490000
5085.75    24951.370000
5087.39    25006.360000
5089.02    24416.850000
5090.65    23570.570000
5092.29    23822.390000
5093.92    23638.270000
5095.55    23395.530000
5097.19    23558.150000
5098.82    23329.260000
5100.46    23220.460000
5102.09    22852.880000
5103.72    22743.570000
5105.36    22367.410000
5106.99    22322.670000
5108.62    22359.460000
5110.26    22694.380000
5111.89    23549.980000
5113.53    23810.690000
5115.16    23914.360000
5116.79    24344.570000
5118.43    24226.850000
5120.06    23799.510000
5121.70    23229.160000
5123.33    22849.120000
5124.96    22963.420000
5126.60    22857.500000
5128.23    23086.180000
5129.86    22980.690000
5131.50    22799.350000
5133.13    22868.490000
5134.77    23003.490000
5136.40    23428.620000
5138.03    23354.230000
5139.67    23805.920000
5141.30    24611.390000
5142.94    24641.090000
5144.57    24233.250000
5146.20    23519.880000
5147.84    23125.200000
5149.47    22685.140000
5151.10    22326.390000
5152.74    22128.700000
5154.37    22170.260000
5156.01    22373.480000
5157.64    22954.690000
5159.27    23132.670000
5160.91    23214.120000
5162.54    23197.560000
5164.18    22909.880000
5165.81    22359.080000
5167.44    22606.640000
5169.08    22658.830000
5170.71    22070.050000
5172.35    21908.490000
5173.98    22128.990000
5175.61    21995.020000
5177.25    22030.100000
5178.88    22205.950000
5180.51    22897.020000
5182.15    22932.200000
5183.78    23112.030000
5185.42    23219.240000
5187.05    22550.830000
5188.68    21143.060000
5190.32    19896.780000
5191.95    18368.870000
5193.59    17478.850000
5195.22    16992.670000
5196.85    16700.480000
5198.49    17086.820000
5200.12    18271.800000
5201.75    19259.370000
5203.39    19532.920000
5205.02    19192.440000
5206.66    18695.330000
5208.29    18244.630000
5209.92    18574.660000
5211.56    19276.710000
5213.19    20211.710000
5214.82    21337.190000
5216.46    21609.470000
5218.09    22090.250000
5219.73    22240.590000
5221.36    23076.260000
5222.99    23308.870000
5224.63    23548.160000
5226.26    23363.360000
5227.90    22773.940000
5229.53    22070.980000
5231.16    21292.820000
5232.80    21073.210000
5234.43    21255.740000
5236.06    21500.710000
5237.70    22481.840000
5239.33    23086.230000
5240.97    23532.090000
5242.60    23993.570000
5244.23    24165.190000
5245.87    24403.940000
5247.50    23980.180000
5249.14    23327.970000
5250.77    23177.690000
5252.40    23051.560000
5254.04    22820.630000
5255.67    23560.110000
5257.31    24110.870000
5258.94    23867.350000
5260.57    24471.780000
5262.21    24415.720000
5263.84    25054.360000
5265.48    25782.770000
5267.11    24946.500000
5268.74    25183.480000
5270.38    25011.270000
5272.01    24513.710000
5273.64    24299.910000
5275.28    23845.240000
5276.91    23643.570000
5278.55    23697.060000
5280.18    24022.110000
5281.81    24383.380000
5283.45    24679.480000
5285.08    24321.360000
5286.71    23548.980000
5288.35    22982.790000
5289.98    22094.110000
5291.62    20939.330000
5293.25    20545.300000
5294.88    20876.860000
5296.52    20836.140000
5298.15    21810.550000
5299.78    22704.370000
5301.42    23201.670000
5303.05    23823.340000
5304.69    24229.600000
5306.32    24426.200000
5307.95    24338.630000
5309.59    24746.680000
5311.22    25510.450000
5312.86    25837.600000
5314.49    25988.620000
5316.12    26451.960000
5317.76    25881.720000
5319.39    25920.350000
5321.02    25426.750000
5322.66    24851.660000
5324.29    24510.210000
5325.93    24001.410000
5327.56    24343.630000
5329.19    24943.170000
5330.83    25234.080000
5332.46    26037.200000
5334.10    26395.560000
5335.73    26348.700000
5337.36    26351.180000
5339.00    26174.040000
5340.63    26179.860000
5342.27    26270.270000
5343.90    26035.890000
5345.53    25401.530000
5347.17    25112.920000
5348.80    24339.670000
5350.44    23749.320000
5352.07    23301.140000
5353.70    22944.510000
5355.34    22917.380000
5356.97    23143.520000
5358.60    23691.410000
5360.24    24322.940000
5361.87    24691.330000
5363.51    24580.310000
5365.14    24343.350000
5366.77    23947.220000
5368.41    24564.250000
5370.04    24370.270000
5371.68    24448.780000
5373.31    24237.010000
5374.94    24694.800000
5376.58    25280.720000
5378.21    25242.740000
5379.84    25645.380000
5381.48    25971.470000
5383.11    26455.330000
5384.75    26416.470000
5386.38    26064.120000
5388.01    25675.730000
5389.65    25495.230000
5391.28    25219.610000
5392.91    24929.750000
5394.55    23953.620000
5396.18    23764.810000
5397.82    24097.610000
5399.45    23933.730000
5401.08    24694.930000
5402.72    24822.520000
5404.35    24759.320000
5405.98    24840.740000
5407.62    24730.910000
5409.25    25234.960000
5410.89    25058.490000
5412.52    25204.400000
5414.15    24142.980000
5415.79    24319.740000
5417.42    24339.590000
5419.06    23806.920000
5420.69    23544.020000
5422.32    22788.090000
5423.96    22755.330000
5425.59    23223.690000
5427.23    23172.630000
5428.86    22759.270000
5430.49    22725.880000
5432.13    22668.360000
5433.76    22661.090000
5435.40    23166.760000
5437.03    23345.210000
5438.66    23489.000000
5440.30    23969.220000
5441.93    24488.880000
5443.56    25069.170000
5445.20    24828.700000
5446.83    24624.460000
5448.47    24727.360000
5450.10    24294.730000
5451.73    24435.400000
5453.37    24120.320000
5455.00    23789.020000
5456.64    23737.070000
5458.27    23281.670000
5459.90    23269.960000
5461.54    23573.400000
5463.17    23493.730000
5464.80    24039.730000
5466.44    24762.220000
5468.07    25068.390000
5469.71    24988.270000
5471.34    24815.200000
5472.97    24510.360000
5474.61    24051.440000
5476.24    23691.310000
5477.88    23809.730000
5479.51    23730.990000
5481.14    23648.270000
5482.78    23406.530000
5484.41    23442.210000
5486.04    23622.990000
5487.68    23831.890000
5489.31    23518.220000
5490.95    23708.920000
5492.58    24253.750000
5494.21    24037.960000
5495.85    23803.100000
5497.48    23644.790000
5499.11    23402.220000
5500.75    23336.810000
5502.38    22778.570000
5504.02    22680.550000
5505.65    22654.520000
5507.28    23032.170000
5508.92    23239.670000
5510.55    22989.770000
5512.19    23281.920000
5513.82    23639.190000
5515.45    23922.020000
5517.09    23993.400000
5518.72    23784.050000
5520.35    23776.880000
5521.99    23877.270000
5523.62    24555.160000
5525.26    23195.550000
5526.89    23459.120000
5528.52    23735.940000
5530.16    24154.830000
5531.79    24440.930000
5533.43    23673.440000
5535.06    23376.650000
5536.69    22820.640000
5538.33    23188.590000
5539.96    23154.260000
5541.60    23077.660000
5543.23    23858.070000
5544.86    23768.080000
5546.50    23772.120000
5548.13    24212.960000
5549.76    24301.130000
5551.40    24105.720000
5553.03    23673.310000
5554.67    23363.040000
5556.30    23483.800000
5557.93    23462.310000
5559.57    23705.460000
5561.20    23770.230000
5562.84    24113.450000
5564.47    24195.130000
5566.10    24361.880000
5567.74    24384.500000
5569.37    24074.160000
5571.00    24200.200000
5572.64    24072.510000
5574.27    22940.470000
5575.91    22707.070000
5577.54    23773.030000
5579.17    25745.680000
5580.81    26492.150000
5582.44    26129.490000
5584.07    25635.150000
5585.71    25174.790000
5587.34    24882.460000
5588.98    24560.520000
5590.61    23897.790000
5592.24    23642.420000
5593.88    23349.150000
5595.51    23159.230000
5597.15    23455.230000
5598.78    23352.310000
5600.41    23237.250000
5602.05    23094.760000
5603.68    23062.180000
5605.31    23297.770000
5606.95    23432.320000
5608.58    23479.320000
5610.22    23363.400000
5611.85    22862.930000
5613.48    22639.490000
5615.12    22490.000000
5616.75    21977.550000
5618.39    21825.820000
5620.02    22022.480000
5621.65    22490.190000
5623.29    22720.350000
5624.92    22570.390000
5626.56    22641.700000
5628.19    23012.850000
5629.82    22914.400000
5631.46    22941.230000
5633.09    23030.260000
5634.73    23267.850000
5636.36    23481.070000
5637.99    23338.710000
5639.63    23135.230000
5641.26    22964.690000
5642.89    22535.280000
5644.53    22449.910000
5646.16    22473.240000
5647.80    22788.710000
5649.43    22533.560000
5651.06    22584.800000
5652.70    22694.750000
5654.33    22918.220000
5655.96    22766.020000
5657.60    22844.500000
5659.23    22978.010000
5660.87    22967.980000
5662.50    22941.030000
5664.13    23038.730000
5665.77    23157.630000
5667.40    23250.240000
5669.03    22866.980000
5670.67    22732.050000
5672.30    22730.600000
5673.94    23511.780000
5675.57    23263.780000
5677.20    23085.150000
5678.84    22938.980000
5680.47    22847.000000
5682.11    22845.450000
5683.74    22687.090000
5685.37    22362.510000
5687.01    22027.310000
5688.64    22183.810000
5690.27    22315.870000
5691.91    22398.820000
5693.54    22685.870000
5695.18    22836.030000
5696.81    22928.390000
5698.44    22952.950000
5700.08    22979.670000
5701.71    23352.990000
5703.35    23643.410000
5704.98    23364.770000
5706.61    22769.530000
5708.25    22723.700000
5709.88    22825.770000
5711.52    22922.320000
5713.15    22626.720000
5714.78    22646.270000
5716.42    22775.620000
5718.05    23038.820000
5719.69    23131.390000
5721.32    23193.820000
5722.95    23204.140000
5724.59    22942.420000
5726.22    22869.870000
5727.85    22630.430000
5729.49    22212.650000
5731.12    21813.840000
5732.76    21904.670000
5734.39    21907.630000
5736.02    21852.810000
5737.66    21716.900000
5739.29    21743.710000
5740.93    21866.680000
5742.56    22212.030000
5744.19    22485.230000
5745.83    22836.720000
5747.46    23153.600000
5749.09    23500.750000
5750.73    23540.530000
5752.36    23569.590000
5753.99    23568.310000
5755.63    23577.870000
5757.26    23254.200000
5758.90    23215.600000
5760.53    23252.290000
5762.16    23509.900000
5763.80    23435.820000
5765.43    23385.670000
5767.07    23284.870000
5768.70    23030.330000
5770.33    23163.270000
5771.97    23331.200000
5773.60    23472.870000
5775.23    23282.450000
5776.87    23137.680000
5778.50    23045.070000
5780.14    22980.800000
5781.77    22534.740000
5783.40    22606.340000
5785.04    22779.070000
5786.67    23182.480000
5788.31    23136.350000
5789.94    22930.150000
5791.57    22951.480000
5793.21    23473.310000
5794.84    23800.730000
5796.48    23780.880000
5798.11    23656.310000
5799.74    23458.510000
5801.38    23568.470000
5803.01    23296.030000
5804.65    22966.210000
5806.28    22706.720000
5807.91    22327.180000
5809.55    22031.570000
5811.18    21777.340000
5812.81    21866.490000
5814.45    22180.660000
5816.08    22322.090000
5817.72    22390.400000
5819.35    22658.260000
5820.98    22951.740000
5822.62    23161.700000
5824.25    23298.940000
5825.89    23783.670000
5827.52    23899.250000
5829.15    23881.630000
5830.79    23722.430000
5832.42    23391.460000
5834.05    23229.860000
5835.69    23279.960000
5837.32    23565.810000
5838.96    23135.370000
5840.59    23144.940000
5842.22    23246.930000
5843.86    23526.340000
5845.49    23228.380000
5847.12    23057.020000
5848.76    23002.390000
5850.39    23298.800000
5852.03    23727.430000
5853.66    23620.720000
5855.29    23444.450000
5856.93    23406.000000
5858.56    23363.310000
5860.19    23586.460000
5861.83    23781.620000
5863.46    23721.410000
5865.10    23525.510000
5866.73    23556.740000
5868.36    23601.680000
5870.00    23245.860000
5871.63    23436.120000
5873.27    23416.690000
5874.90    23245.280000
5876.53    23095.310000
5878.17    22779.730000
5879.80    22468.160000
5881.44    22097.160000
5883.07    22068.450000
5884.70    21612.620000
5886.34    21263.690000
5887.97    20974.470000
5889.60    21241.420000
5891.24    21200.250000
5892.87    21327.900000
5894.51    21814.970000
5896.14    21590.460000
5897.77    21774.170000
5899.41    21848.260000
5901.04    21714.580000
5902.68    21840.580000
5904.31    22125.780000
5905.94    22280.080000
5907.58    22108.700000
5909.21    21712.270000
5910.85    21221.870000
5912.48    20555.470000
5914.11    19238.920000
5915.75    17686.030000
5917.38    17232.200000
5919.01    16981.220000
5920.65    16004.690000
5922.28    16797.910000
5923.92    17556.320000
5925.55    18316.620000
5927.18    19301.700000
5928.82    19637.810000
5930.45    20040.460000
5932.09    20507.980000
5933.72    21664.670000
5935.35    21786.810000
5936.99    21795.290000
5938.62    21705.690000
5940.25    21589.410000
5941.89    21040.130000
5943.52    20777.910000
5945.16    20955.450000
5946.79    21244.070000
5948.42    21430.850000
5950.06    21517.980000
5951.69    21476.540000
5953.32    21523.510000
5954.96    21724.100000
5956.59    21757.130000
5958.23    21410.930000
5959.86    21676.570000
5961.49    21897.050000
5963.13    22089.360000
5964.76    22325.100000
5966.40    21975.840000
5968.03    21764.080000
5969.66    21608.440000
5971.30    21818.710000
5972.93    21774.570000
5974.56    21629.440000
5976.20    21466.230000
5977.83    21761.140000
5979.47    21807.410000
5981.10    21801.540000
5982.73    21728.580000
5984.37    21908.320000
5986.00    21740.360000
5987.64    21755.050000
5989.27    21886.490000
5990.90    21550.670000
5992.54    21923.450000
5994.17    22065.700000
5995.81    21973.090000
5997.44    22656.200000
5999.07    22353.120000
6000.71    22017.770000
6002.34    21738.030000
6003.98    21814.870000
6005.61    21777.200000
6007.24    21712.950000
6008.88    21704.250000
6010.51    21334.290000
6012.14    21194.950000
6013.78    21205.110000
6015.41    21655.490000
6017.05    21383.550000
6018.68    21633.050000
6020.31    21879.350000
6021.95    21603.240000
6023.58    21726.800000
6025.21    21911.220000
6026.85    22040.750000
6028.48    21728.170000
6030.12    21638.930000
6031.75    21708.540000
6033.38    21799.120000
6035.02    21645.920000
6036.65    21380.600000
6038.28    21276.280000
6039.92    21258.470000
6041.55    21581.840000
6043.19    21456.210000
6044.82    21507.030000
6046.45    21747.310000
6048.09    21762.940000
6049.72    21407.540000
6051.36    21338.130000
6052.99    21798.770000
6054.62    21688.800000
6056.26    21933.890000
6057.89    22130.370000
6059.52    22218.960000
6061.16    22111.570000
6062.79    22256.650000
6064.43    22430.340000
6066.06    22690.790000
6067.69    22458.700000
6069.33    22209.160000
6070.96    22122.910000
6072.60    23009.870000
6074.23    22562.130000
6075.86    22533.720000
6077.50    22615.820000
6079.13    22607.150000
6080.77    22226.030000
6082.40    21994.100000
6084.03    21774.650000
6085.67    21513.270000
6087.30    21818.330000
6088.94    21962.380000
6090.57    21962.440000
6092.20    22000.480000
6093.84    22112.880000
6095.47    22226.020000
6097.10    22330.900000
6098.74    22388.110000
6100.37    22529.850000
6102.01    22563.380000
6103.64    22538.870000
6105.27    22286.480000
6106.91    21947.840000
6108.54    21705.890000
6110.18    21715.180000
6111.81    21809.650000
6113.44    21932.570000
6115.08    22051.740000
6116.71    22273.060000
6118.34    22014.770000
6119.98    22047.560000
6121.61    22016.570000
6123.24    21529.870000
6124.88    21783.130000
6126.51    21822.850000
6128.15    21731.240000
6129.78    21441.040000
6131.41    21247.200000
6133.05    21332.070000
6134.68    21522.830000
6136.32    21887.730000
6137.95    21817.870000
6139.58    21691.950000
6141.22    21525.520000
6142.85    22032.240000
6144.48    21755.570000
6146.12    21556.890000
6147.75    21420.600000
6149.39    21229.050000
6151.02    21276.860000
6152.65    21379.340000
6154.29    21630.470000
6155.92    21547.750000
6157.56    21480.250000
6159.19    21451.950000
6160.82    21528.970000
6162.46    21147.770000
6164.09    21165.530000
6165.73    21158.000000
6167.36    21087.680000
6168.99    21451.000000
6170.63    21653.770000
6172.26    21791.080000
6173.90    21903.160000
6175.53    21869.140000
6177.16    21703.370000
6178.80    21482.490000
6180.43    21378.730000
6182.06    21097.920000
6183.70    20944.870000
6185.33    20822.790000
6186.97    20725.800000
6188.60    20126.020000
6190.23    19822.520000
6191.87    19630.840000
6193.50    19600.830000
6195.14    19322.400000
6196.77    19347.040000
6198.40    19564.260000
6200.04    19940.270000
6201.67    20030.580000
6203.30    20260.770000
6204.94    20640.480000
6206.57    20724.990000
6208.20    20715.350000
6209.84    20674.680000
6211.47    20651.030000
6213.11    20653.770000
6214.74    20782.360000
6216.38    20811.990000
6218.01    20683.100000
6219.64    20110.300000
6221.28    19976.570000
6222.91    19988.920000
6224.54    20306.140000
6226.18    20184.550000
6227.81    20161.080000
6229.44    20168.900000
6231.08    20392.170000
6232.71    20866.490000
6234.35    20943.720000
6235.98    20839.540000
6237.61    20610.930000
6239.25    20506.150000
6240.88    20402.620000
6242.52    20236.220000
6244.15    19911.430000
6245.78    19546.150000
6247.42    19407.570000
6249.05    19396.250000
6250.69    19513.010000
6252.32    19625.970000
6253.95    19681.960000
6255.59    19683.170000
6257.22    19347.300000
6258.85    19413.780000
6260.49    19450.390000
6262.12    19502.120000
6263.76    19432.170000
6265.39    19420.280000
6267.02    19369.650000
6268.66    19259.710000
6270.29    19081.140000
6271.93    18976.710000
6273.56    18864.200000
6275.19    18796.360000
6276.83    18564.230000
6278.46    18589.730000
6280.10    18686.700000
6281.73    18970.450000
6283.36    18659.040000
6285.00    18560.340000
6286.63    18526.820000
6288.26    18581.860000
6289.90    18503.790000
6291.53    18690.170000
6293.17    18997.100000
6294.80    19657.720000
6296.43    19769.990000
6298.07    19876.830000
6299.70    19947.100000
6301.34    20023.790000
6302.97    19926.630000
6304.60    19833.480000
6306.24    19724.940000
6307.87    19473.390000
6309.50    19643.130000
6311.14    19856.160000
6312.77    20219.320000
6314.41    20049.390000
6316.04    19958.160000
6317.67    20009.070000
6319.31    20390.140000
6320.94    20548.420000
6322.57    20425.580000
6324.21    20237.760000
6325.84    20044.020000
6327.48    20096.650000
6329.11    20260.740000
6330.74    20440.950000
6332.38    20657.160000
6334.01    20325.470000
6335.65    20289.060000
6337.28    20324.060000
6338.91    20508.210000
6340.55    20154.760000
6342.18    20041.000000
6343.81    19975.560000
6345.45    19769.210000
6347.08    19576.880000
6348.72    19515.910000
6350.35    19502.760000
6351.98    20039.970000
6353.62    20191.170000
6355.25    20329.950000
6356.89    20423.600000
6358.52    20333.780000
6360.15    20323.560000
6361.79    20485.200000
6363.42    20868.420000
6365.06    20588.580000
6366.69    20327.810000
6368.32    20226.360000
6369.96    20422.050000
6371.59    20444.090000
6373.22    20427.540000
6374.86    20375.980000
6376.49    20346.790000
6378.13    20366.810000
6379.76    20592.330000
6381.39    20767.010000
6383.03    20753.330000
6384.66    20298.620000
6386.30    20106.070000
6387.93    19977.080000
6389.56    20037.230000
6391.20    19597.530000
6392.83    19633.260000
6394.46    19834.020000
6396.10    20063.220000
6397.73    20208.890000
6399.37    20406.090000
6401.00    20593.480000
6402.63    20696.850000
6404.27    20817.240000
6405.90    20907.160000
6407.53    20929.000000
6409.17    20600.730000
6410.80    20376.180000
6412.44    20340.150000
6414.07    20479.620000
6415.70    20701.940000
6417.34    20662.970000
6418.97    20611.180000
6420.61    20633.590000
6422.24    20766.590000
6423.87    20431.980000
6425.51    20119.480000
6427.14    19976.430000
6428.77    19933.560000
6430.41    20143.980000
6432.04    20246.290000
6433.68    19943.210000
6435.31    20034.300000
6436.94    20214.390000
6438.58    20349.120000
6440.21    20341.870000
6441.85    20014.500000
6443.48    20034.240000
6445.11    20122.320000
6446.75    20075.420000
6448.38    20063.120000
6450.02    20147.160000
6451.65    20242.910000
6453.28    20431.860000
6454.92    20651.090000
6456.55    20637.380000
6458.19    20435.250000
6459.82    19988.840000
6461.45    20134.360000
6463.09    20135.950000
6464.72    20001.380000
6466.35    20276.950000
6467.99    20210.530000
6469.62    20179.970000
6471.26    20275.100000
6472.89    19701.270000
6474.52    19838.040000
6476.16    19890.620000
6477.79    19728.090000
6479.42    19521.930000
6481.06    19533.210000
6482.69    19617.390000
6484.33    19947.360000
6485.96    20041.580000
6487.59    19901.080000
6489.23    19793.190000
6490.86    20119.110000
6492.49    19981.230000
6494.13    20057.430000
6495.76    20141.300000
6497.40    20096.080000
6499.03    20126.270000
6500.66    20312.470000
6502.30    20525.820000
6503.93    20644.720000
6505.57    20346.990000
6507.20    20344.150000
6508.83    20479.170000
6510.47    20576.660000
6512.10    20070.240000
6513.73    19854.310000
6515.37    19865.070000
6517.00    19712.690000
6518.64    19711.910000
6520.27    19591.300000
6521.90    19387.810000
6523.54    18976.960000
6525.17    18716.940000
6526.81    18617.940000
6528.44    18843.940000
6530.07    18841.540000
6531.71    18951.660000
6533.34    19137.020000
6534.98    19591.070000
6536.61    19934.890000
6538.24    20087.710000
6539.88    20206.420000
6541.51    20371.970000
6543.15    20040.210000
6544.78    19982.450000
6546.41    19962.390000
6548.05    19947.410000
6549.68    19953.940000
6551.31    19865.050000
6552.95    19738.390000
6554.58    19904.030000
6556.22    20093.320000
6557.85    20171.450000
6559.48    20138.030000
6561.12    19998.460000
6562.75    19751.310000
6564.39    19884.880000
6566.02    20290.660000
6567.65    20471.960000
6569.29    20605.150000
6570.92    20603.660000
6572.55    20441.080000
6574.19    20344.640000
6575.82    20577.390000
6577.45    20716.870000
6579.09    20738.410000
6580.72    20645.480000
6582.36    20524.120000
6583.99    20387.950000
6585.62    20309.960000
6587.26    19698.960000
6588.89    20007.600000
6590.53    20157.630000
6592.16    19418.080000
6593.79    19104.480000
6595.43    19133.420000
6597.06    19167.570000
6598.69    18994.630000
6600.33    19473.460000
6601.96    19701.220000
6603.60    19812.630000
6605.23    19739.700000
6606.86    20072.300000
6608.50    20438.300000
6610.13    20818.150000
6611.77    21491.140000
6613.40    22176.950000
6615.03    22391.240000
6616.67    22244.190000
6618.30    22332.320000
6619.94    21641.890000
6621.57    21076.450000
6623.20    20571.660000
6624.84    19994.070000
6626.47    19421.480000
6628.10    19113.680000
6629.74    19245.890000
6631.37    19071.920000
6633.01    19394.810000
6634.64    19587.050000
6636.27    19521.580000
6637.91    19367.010000
6639.54    19422.920000
6641.18    19414.560000
6642.81    19234.220000
6644.44    19497.820000
6646.08    19536.390000
6647.71    19594.830000
6649.35    20098.420000
6650.98    19847.530000
6652.61    19682.550000
6654.25    19558.540000
6655.88    19742.330000
6657.51    19414.800000
6659.15    19197.590000
6660.78    19018.970000
6662.42    19333.200000
6664.05    19280.980000
6665.68    19198.950000
6667.32    19083.450000
6668.95    19383.320000
6670.59    19172.180000
6672.22    19034.750000
6673.85    18959.490000
6675.49    18743.090000
6677.12    18952.690000
6678.75    19014.670000
6680.39    18945.620000
6682.02    19160.600000
6683.65    18848.210000
6685.29    18775.380000
6686.92    19235.590000
6688.56    19009.300000
6690.19    18757.440000
6691.82    18632.010000
6693.46    18941.070000
6695.09    18808.790000
6696.73    18684.170000
6698.36    18674.980000
6699.99    19209.260000
6701.63    18962.620000
6703.26    18815.470000
6704.90    18703.530000
6706.53    18854.790000
6708.16    18822.270000
6709.80    18843.180000
6711.43    18847.790000
6713.06    18605.850000
6714.70    18598.420000
6716.33    18596.420000
6717.97    18555.430000
6719.60    18353.880000
6721.23    18451.130000
6722.87    18496.790000
6724.50    18443.570000
6726.14    18884.340000
6727.77    18579.140000
6729.40    18388.930000
6731.04    18328.020000
6732.67    18297.380000
6734.31    18483.290000
6735.94    18462.280000
6737.57    18131.760000
6739.21    18669.440000
6740.84    18767.790000
6742.47    18833.290000
6744.11    19013.680000
6745.74    18987.930000
6747.38    19098.920000
6749.01    19199.590000
6750.64    19233.200000
6752.28    19188.930000
6753.91    19060.300000
6755.55    18918.860000
6757.18    18998.580000
6758.81    19049.820000
6760.45    19122.800000
6762.08    19191.310000
6763.71    19367.730000
6765.35    19002.390000
6766.98    18873.300000
6768.62    18781.100000
6770.25    18121.110000
6771.88    18326.260000
6773.52    18348.490000
6775.15    18209.930000
6776.78    17905.200000
6778.42    18074.760000
6780.05    18204.410000
6781.69    18297.870000
6783.32    17842.010000
6784.95    17883.400000
6786.59    17971.860000
6788.22    18183.990000
6789.85    17904.260000
6791.49    17981.140000
6793.12    18136.230000
6794.76    18502.600000
6796.39    17892.220000
6798.02    17815.620000
6799.66    17814.100000
6801.29    17886.610000
6802.93    17859.150000
6804.56    17981.780000
6806.19    18123.110000
6807.83    18342.270000
6809.46    18202.190000
6811.10    18090.160000
6812.73    17993.620000
6814.36    18050.800000
6816.00    17804.360000
6817.63    17823.290000
6819.27    17906.170000
6820.90    17635.090000
6822.53    17682.690000
6824.17    17674.000000
6825.80    17598.890000
6827.44    17857.560000
6829.07    17819.750000
6830.70    17722.110000
6832.34    17545.730000
6833.97    17679.250000
6835.60    17700.680000
6837.24    17746.460000
6838.87    17905.320000
6840.51    17948.520000
6842.14    17743.520000
6843.77    17657.240000
6845.41    17887.130000
6847.04    17840.370000
6848.67    17916.050000
6850.31    17930.110000
6851.94    17820.210000
6853.58    17662.550000
6855.21    17753.570000
6856.84    17789.750000
6858.48    17439.550000
6860.11    17558.880000
6861.74    17825.550000
6863.38    17951.720000
6865.01    17031.240000
6866.65    14782.510000
6868.28    13912.790000
6869.91    13514.150000
6871.55    12604.600000
6873.18    13240.490000
6874.82    13862.420000
6876.45    14528.810000
6878.08    15988.790000
6879.72    16160.050000
6881.35    16669.020000
6882.98    17509.910000
6884.62    16802.560000
6886.25    16618.540000
6887.89    16864.500000
6889.52    17726.680000
6891.15    15187.190000
6892.79    15475.100000
6894.42    15889.350000
6896.06    16352.010000
6897.69    15953.620000
6899.32    16234.590000
6900.96    16597.790000
6902.59    17110.660000
6904.23    15993.420000
6905.86    16083.730000
6907.49    16369.840000
6909.13    16702.110000
6910.76    16247.610000
6912.40    16172.290000
6914.03    16211.580000
6915.66    16503.150000
6917.30    16639.500000
6918.93    16599.620000
6920.56    16518.170000
6922.20    16798.270000
6923.83    16874.540000
6925.47    16761.530000
6927.10    16513.820000
6928.73    16473.080000
6930.37    16398.890000
6932.00    16554.400000
6933.64    16856.470000
6935.27    16878.650000
6936.90    16503.230000
6938.54    16327.830000
6940.17    16373.260000
6941.80    16145.510000
6943.44    16259.260000
6945.07    16313.110000
6946.70    16307.860000
6948.34    16427.500000
6949.97    16513.130000
6951.61    16523.330000
6953.24    16441.470000
6954.88    16166.080000
6956.51    16331.540000
6958.14    16462.820000
6959.78    16302.180000
6961.41    16517.880000
6963.04    16614.190000
6964.68    16664.920000
6966.31    16767.570000
6967.94    17114.390000
6969.58    17131.370000
6971.21    17026.040000
6972.85    17040.600000
6974.48    16844.970000
6976.11    16808.790000
6977.75    16823.940000
6979.38    17028.800000
6981.02    16870.930000
6982.65    16695.890000
6984.28    16478.110000
6985.92    16391.270000
6987.55    16075.800000
6989.19    16055.760000
6990.82    16332.300000
6992.45    16357.580000
6994.09    16312.950000
6995.72    16303.100000
6997.35    16403.290000
6998.99    16329.960000
7000.62    16562.930000
7002.26    16656.730000
7003.89    16457.130000
7005.52    16415.550000
7007.16    16319.900000
7008.79    16228.930000
7010.43    16233.230000
7012.06    15930.570000
7013.69    15931.980000
7015.33    15984.520000
7016.96    16107.130000
7018.60    16392.630000
7020.23    16412.850000
7021.86    16342.650000
7023.50    16281.820000
7025.13    16092.230000
7026.76    16238.040000
7028.40    16468.550000
7030.03    16214.980000
7031.67    16094.930000
7033.30    16167.520000
7034.93    16314.370000
7036.57    15835.680000
7038.20    15805.310000
7039.84    15909.440000
7041.47    16133.870000
7043.10    15875.860000
7044.74    15866.970000
7046.37    15813.190000
7048.00    15756.930000
7049.64    15628.960000
7051.27    15667.890000
7052.90    15714.590000
7054.54    15815.000000
7056.17    16150.450000
7057.81    15977.430000
7059.44    15825.770000
7061.07    15949.050000
7062.71    15929.880000
7064.34    15916.220000
7065.98    15953.700000
7067.61    16225.070000
7069.24    16097.930000
7070.88    16193.290000
7072.51    16337.730000
7074.15    16566.430000
7075.78    16227.280000
7077.41    16206.820000
7079.05    16291.170000
7080.68    16389.880000
7082.31    16322.570000
7083.95    16161.490000
7085.58    15905.500000
7087.22    15852.150000
7088.85    15720.740000
7090.48    15542.940000
7092.12    15274.670000
7093.75    15041.770000
7095.39    14882.740000
7097.02    14792.110000
7098.65    14767.190000
7100.29    14796.430000
7101.92    14764.490000
7103.56    14815.830000
7105.19    15044.830000
7106.82    14904.510000
7108.46    14991.610000
7110.09    15150.890000
7111.72    15523.310000
7113.36    15144.370000
7114.99    15067.180000
7116.63    15011.810000
7118.26    14929.060000
7119.89    14807.030000
7121.53    14587.420000
7123.16    14333.020000
7124.80    14167.800000
7126.43    14239.220000
7128.06    14350.990000
7129.70    14440.230000
7131.33    14267.080000
7132.96    14110.350000
7134.60    14041.070000
7136.23    13993.560000
7137.87    14098.140000
7139.50    14034.580000
7141.13    13940.830000
7142.77    13789.230000
7144.40    13752.440000
7146.03    13737.600000
7147.67    13741.730000
7149.30    13750.440000
7150.94    13641.250000
7152.57    13698.410000
7154.20    13755.690000
7155.84    13869.300000
7157.47    13749.780000
7159.10    13479.050000
7160.74    13218.100000
7162.37    13024.400000
7164.01    12668.730000
7165.64    12353.470000
7167.27    12089.760000
7168.91    11972.610000
7170.54    12010.000000
7172.18    12257.250000
7173.81    12406.940000
7175.44    11986.480000
7177.08    12089.950000
7178.71    12199.460000
7180.35    12278.480000
7181.98    12223.590000
7183.61    11484.760000
7185.25    11464.440000
7186.88    11761.910000
7188.52    12146.060000
7190.15    12318.480000
7191.78    12252.800000
7193.42    12017.770000
7195.05    12111.260000
7196.69    12078.500000
7198.32    12047.230000
7199.95    12016.650000
7201.59    12310.640000
7203.22    12087.540000
7204.85    11958.640000
7206.49    12002.200000
7208.12    12136.660000
7209.76    12261.230000
7211.39    12417.190000
7213.02    12675.020000
7214.66    12692.710000
7216.29    12781.680000
7217.92    12791.630000
7219.56    12626.300000
7221.19    12387.690000
7222.83    12438.960000
7224.46    12466.980000
7226.09    12233.310000
7227.73    12094.450000
7229.36    11904.040000
7230.99    11638.270000
7232.63    11154.180000
7234.26    11097.040000
7235.90    11148.030000
7237.53    11237.060000
7239.16    11447.360000
7240.80    11037.060000
7242.43    10850.160000
7244.07    10789.640000
7245.70    11327.330000
7247.33    11217.960000
7248.97    11124.780000
7250.60    11034.520000
7252.23    11030.570000
7253.87    11154.540000
7255.50    11278.570000
7257.14    11456.830000
7258.77    11495.430000
7260.40    11424.370000
7262.04    11417.640000
7263.67    11571.090000
7265.31    11590.610000
7266.94    11488.280000
7268.57    11482.560000
7270.21    11807.120000
7271.84    11857.520000
7273.48    11522.390000
7275.11    11142.760000
7276.74    10849.490000
7278.38    11073.700000
7280.01    11430.400000
7281.65    11789.920000
7283.28    12060.320000
7284.91    11905.390000
7286.55    11611.460000
7288.18    11281.900000
7289.81    11368.020000
7291.45    11437.410000
7293.08    11505.050000
7294.72    11562.590000
7296.35    11902.290000
7297.98    11837.080000
7299.62    11776.610000
7301.25    11699.960000
7302.89    11836.130000
7304.52    11774.580000
7306.15    11755.940000
7307.79    11779.670000
7309.42    11495.300000
7311.05    11530.230000
7312.69    11601.680000
7314.32    11742.560000
7315.95    11497.570000
7317.59    11565.090000
7319.22    11634.890000
7320.86    11711.800000
7322.49    12059.320000
7324.12    12030.170000
7325.76    11922.720000
7327.39    11791.440000
7329.03    12149.770000
7330.66    12197.720000
7332.29    12146.780000
7333.93    12066.650000
7335.56    12380.160000
7337.19    12456.520000
7338.83    12497.500000
7340.46    12943.220000
7342.10    12419.870000
7343.73    12312.510000
7345.36    12378.840000
7347.00    12428.730000
7348.63    12725.780000
7350.27    12768.540000
7351.90    12609.660000
7353.53    12484.880000
7355.17    12315.820000
7356.80    12315.030000
7358.44    12471.990000
7360.07    12595.700000
7361.70    12645.630000
7363.34    12548.400000
7364.97    12282.770000
7366.60    12283.130000
7368.24    12377.010000
7369.87    12509.320000
7371.51    12763.660000
7373.14    12565.830000
7374.77    12583.240000
7376.41    12568.580000
7378.04    12440.260000
7379.68    12566.230000
7381.31    12386.100000
7382.94    12252.380000
7384.58    12690.020000
7386.21    12574.020000
7387.85    12544.660000
7389.48    12489.960000
7391.11    12204.950000
7392.75    12166.940000
7394.38    12152.360000
7396.01    12128.580000
7397.65    12192.710000
7399.28    12273.110000
7400.91    12376.270000
7402.55    12488.760000
7404.18    12695.560000
7405.82    12517.300000
7407.45    12508.780000
7409.09    12656.680000
7410.72    12499.080000
7412.35    12676.050000
7413.99    12714.230000
7415.62    12612.300000
7417.25    12476.170000
7418.89    12478.200000
7420.52    12462.980000
7422.15    12422.490000
7423.79    12247.450000
7425.42    12161.400000
7427.06    12088.810000
7428.69    12082.810000
7430.32    12325.200000
7431.96    12365.910000
7433.59    12358.800000
7435.23    12372.710000
7436.86    12324.210000
7438.49    12260.640000
7440.13    12211.580000
7441.76    12409.730000
7443.40    12178.360000
7445.03    12193.410000
7446.66    12284.900000
7448.30    12236.750000
7449.93    11947.650000
7451.56    11974.740000
7453.20    12155.400000
7454.83    12183.500000
7456.47    12016.330000
7458.10    12052.840000
7459.73    12217.190000
7461.37    12298.170000
7463.00    12264.840000
7464.64    12174.990000
7466.27    12015.940000
7467.90    11955.510000
7469.54    12097.370000
7471.17    12175.010000
7472.81    12176.940000
7474.44    12048.620000
7476.07    12076.350000
7477.71    12075.950000
7479.34    12027.050000
7480.97    11824.680000
7482.61    11885.360000
7484.24    11954.630000
7485.88    11935.570000
7487.51    12011.130000
7489.14    12216.850000
7490.78    12431.020000
7492.41    12624.660000
7494.05    12232.330000
7495.68    12008.240000
7497.31    11857.600000
7498.95    12020.540000
7500.58    11799.810000
7502.21    11771.220000
7503.85    11809.300000
7505.48    11789.340000
7507.12    11687.310000
7508.75    11762.440000
7510.38    11952.560000
7512.02    11908.050000
7513.65    11728.150000
7515.28    11645.760000
7516.92    11658.160000
7518.55    11787.990000
7520.19    11825.770000
7521.82    11782.040000
7523.45    11656.240000
7525.09    11597.910000
7526.72    11543.240000
7528.35    11540.030000
7529.99    11702.550000
7531.62    11399.350000
7533.26    11500.590000
7534.89    11647.410000
7536.52    11819.270000
7538.16    11535.250000
7539.79    11583.090000
7541.43    11669.740000
7543.06    11692.820000
7544.69    11486.230000
7546.33    11637.090000
7547.96    11845.110000
7549.60    11652.360000
7551.23    11492.870000
7552.86    11415.710000
7554.50    11366.340000
7556.13    11521.150000
7557.77    11531.460000
7559.40    11445.060000
7561.03    11272.610000
7562.67    11381.870000
7564.30    11476.480000
7565.93    11659.860000
7567.57    11933.360000
7569.20    15420.360000
7570.84    15248.310000
7572.47    10211.590000
7574.10    -1860.521000
7575.74    -3004.971000
7577.37    -3134.162000
7579.01    -3150.309000
7580.64    -3083.355000
7582.27     0.000000
7583.91     0.000000
7585.54     0.000000
7587.17     0.000000
7588.81     0.000000
7590.44     0.000000
7592.08     0.000000
7593.71     0.000000
7595.34     0.000000
7596.98     0.000000
