#Wavelength     Flux
#[Angstrom]   [Counts]
3913.05     0.000000
3914.68     0.000000
3916.32     0.000000
3917.95     0.000000
3919.59     0.000000
3921.23     0.000000
3922.86     0.000000
3924.50     0.000000
3926.14     0.000000
3927.77     0.000000
3929.41     0.000000
3931.04     0.000000
3932.68     0.000000
3934.32     0.000000
3935.95     0.000000
3937.59     0.000000
3939.22     0.000000
3940.86     0.000000
3942.50     0.000000
3944.13     0.000000
3945.77     0.000000
3947.41     0.000000
3949.04     0.000000
3950.68     0.000000
3952.31     0.000000
3953.95     0.000000
3955.59     0.000000
3957.22    7434.645000
3958.86    3285.502000
3960.49    2809.168000
3962.13    2732.210000
3963.77    2947.760000
3965.40    3984.220000
3967.04    5035.118000
3968.68    5084.065000
3970.31    5599.046000
3971.95    6072.138000
3973.59    6158.256000
3975.22    6671.494000
3976.86    6738.406000
3978.49    6624.900000
3980.13    6771.345000
3981.77    6652.136000
3983.40    6753.724000
3985.04    6584.365000
3986.67    6318.194000
3988.31    6137.132000
3989.95    5240.612000
3991.58    4796.027000
3993.22    4005.216000
3994.86    3211.118000
3996.49    2858.753000
3998.13    2861.521000
3999.76    3811.222000
4001.40    4644.882000
4003.04    4935.381000
4004.67    5486.083000
4006.31    6418.921000
4007.95    7034.632000
4009.58    7078.145000
4011.22    7292.436000
4012.85    7415.165000
4014.49    7396.375000
4016.13    7685.907000
4017.76    7919.725000
4019.40    7883.149000
4021.03    7838.901000
4022.67    8353.918000
4024.31    8356.754000
4025.94    8236.176000
4027.58    8154.572000
4029.22    8216.937000
4030.85    8251.633000
4032.49    8122.852000
4034.12    8349.843000
4035.76    7894.750000
4037.40    8193.344000
4039.03    8625.620000
4040.67    8352.037000
4042.30    8497.863000
4043.94    8528.507000
4045.58    8876.219000
4047.21    8710.552000
4048.85    8739.885000
4050.49    8810.964000
4052.12    8706.098000
4053.76    8666.467000
4055.39    8566.978000
4057.03    8772.095000
4058.67    8516.979000
4060.30    8019.293000
4061.94    8039.258000
4063.58    8280.441000
4065.21    8630.259000
4066.85    8882.161000
4068.49    8415.691000
4070.12    8431.915000
4071.76    8385.211000
4073.39    8079.464000
4075.03    8036.511000
4076.67    8125.177000
4078.30    8446.836000
4079.94    8819.921000
4081.57    8904.726000
4083.21    8456.373000
4084.85    8146.703000
4086.48    8140.880000
4088.12    8128.872000
4089.76    8385.249000
4091.39    8328.095000
4093.03    8155.130000
4094.66    8047.667000
4096.30    8165.424000
4097.94    8388.565000
4099.57    8015.441000
4101.21    7918.869000
4102.85    8075.325000
4104.48    7919.192000
4106.12    7782.193000
4107.75    7866.065000
4109.39    8385.939000
4111.03    8628.001000
4112.66    8410.907000
4114.30    8387.271000
4115.94    8459.878000
4117.57    8540.420000
4119.21    8780.569000
4120.84    8444.750000
4122.48    8351.953000
4124.12    8043.016000
4125.75    7135.635000
4127.39    6855.396000
4129.02    6353.517000
4130.66    6001.250000
4132.30    6616.638000
4133.93    6844.370000
4135.57    7471.080000
4137.20    7864.790000
4138.84    7845.779000
4140.48    8053.498000
4142.11    8417.747000
4143.75    8581.386000
4145.39    8528.015000
4147.02    8389.803000
4148.66    8358.163000
4150.30    8485.813000
4151.93    8433.741000
4153.57    8574.090000
4155.20    8814.835000
4156.84    8223.717000
4158.48    8297.120000
4160.11    8317.631000
4161.75    8114.124000
4163.39    8065.567000
4165.02    8536.742000
4166.66    9039.346000
4168.29    9114.920000
4169.93    8939.664000
4171.56    8577.645000
4173.20    8303.470000
4174.84    8552.455000
4176.47    8847.429000
4178.11    8827.106000
4179.75    8803.675000
4181.38    8565.811000
4183.02    8439.862000
4184.65    8418.044000
4186.29    8198.431000
4187.93    8632.132000
4189.56    8975.405000
4191.20    9090.234000
4192.84    9004.731000
4194.47    8822.305000
4196.11    8763.024000
4197.74    8879.506000
4199.38    8338.854000
4201.02    8033.032000
4202.65    8138.235000
4204.29    7850.615000
4205.93    8254.257000
4207.56    8370.468000
4209.20    8539.968000
4210.83    8666.685000
4212.47    8183.636000
4214.11    8415.126000
4215.74    8751.525000
4217.38    8395.976000
4219.02    8874.047000
4220.65    8730.194000
4222.29    8905.670000
4223.92    8902.820000
4225.56    8539.759000
4227.20    8497.758000
4228.83    8062.702000
4230.47    7792.573000
4232.10    8495.117000
4233.74    8369.859000
4235.38    8525.567000
4237.01    8767.902000
4238.65    9357.668000
4240.29    9201.708000
4241.92    8855.842000
4243.56    8894.824000
4245.19    8852.868000
4246.83    8712.150000
4248.47    8688.326000
4250.10    9004.731000
4251.74    8777.955000
4253.38    8427.698000
4255.01    7827.796000
4256.65    7320.415000
4258.28    7731.632000
4259.92    8625.233000
4261.56    9082.200000
4263.19    8821.353000
4264.83    8678.411000
4266.47    8638.071000
4268.10    9043.249000
4269.74    8794.533000
4271.37    8956.383000
4273.01    9364.556000
4274.65    9132.997000
4276.28    8806.204000
4277.92    8347.104000
4279.56    8831.382000
4281.19    8692.828000
4282.83    8698.360000
4284.46    9055.741000
4286.10    8593.279000
4287.74    8043.011000
4289.37    8688.500000
4291.01    8446.628000
4292.65    8744.208000
4294.28    9511.737000
4295.92    9302.628000
4297.55    9120.567000
4299.19    8778.243000
4300.83    8574.211000
4302.46    7947.572000
4304.10    8420.257000
4305.73    8279.377000
4307.37    8970.172000
4309.01    9070.969000
4310.64    8685.530000
4312.28    8693.066000
4313.92    8621.689000
4315.55    8363.937000
4317.19    8524.417000
4318.82    8037.884000
4320.46    8091.885000
4322.10    7763.034000
4323.73    8181.839000
4325.37    8385.179000
4327.01    8406.889000
4328.64    7714.721000
4330.28    7286.314000
4331.91    7216.896000
4333.55    7347.054000
4335.19    7506.904000
4336.82    7033.056000
4338.46    7113.364000
4340.10    6752.745000
4341.73    7449.283000
4343.37    8009.636000
4345.00    8280.018000
4346.64    9052.239000
4348.28    9432.445000
4349.91    9437.597000
4351.55    9304.161000
4353.19    8667.453000
4354.82    7959.166000
4356.46    7712.685000
4358.09    8442.608000
4359.73    8656.300000
4361.36    8925.602000
4363.00    8861.417000
4364.64    8893.493000
4366.27    8632.659000
4367.91    7527.427000
4369.55    7456.103000
4371.18    6589.875000
4372.82    7192.813000
4374.45    7418.965000
4376.09    8022.270000
4377.73    8624.308000
4379.36    8699.608000
4381.00    8788.968000
4382.64    8433.027000
4384.27    8405.837000
4385.91    9005.340000
4387.55    9328.317000
4389.18    9373.619000
4390.82    9463.548000
4392.45    9426.039000
4394.09    9749.879000
4395.73    9778.306000
4397.36    9490.548000
4399.00    9300.304000
4400.63    9058.799000
4402.27    8997.117000
4403.91    8945.762000
4405.54    8911.960000
4407.18    9130.464000
4408.81    9287.449000
4410.45    9471.696000
4412.09    9147.418000
4413.72    8363.148000
4415.36    8022.543000
4417.00    8064.313000
4418.63    8417.623000
4420.27    9229.887000
4421.90    9156.782000
4423.54    9180.878000
4425.18    9260.571000
4426.81    9325.378000
4428.45    9576.189000
4430.09    9503.761000
4431.72    9032.688000
4433.36    9007.696000
4434.99    8953.687000
4436.63    8859.026000
4438.27    8588.717000
4439.90    9085.532000
4441.54    9594.730000
4443.18    9842.269000
4444.81    9771.851000
4446.45    9732.910000
4448.08    9182.701000
4449.72    9285.079000
4451.36    9829.513000
4452.99    9852.594000
4454.63    10088.670000
4456.27    10084.680000
4457.90    9480.081000
4459.54    9937.273000
4461.17    9919.262000
4462.81    9744.829000
4464.45    9717.824000
4466.08    9537.135000
4467.72    9528.839000
4469.35    9840.225000
4470.99    9924.328000
4472.63    9892.543000
4474.26    9616.463000
4475.90    9756.165000
4477.54    9712.422000
4479.17    9764.474000
4480.81    10142.290000
4482.44    10019.660000
4484.08    9753.914000
4485.72    9284.104000
4487.35    9031.668000
4488.99    9589.528000
4490.62    9544.919000
4492.26    9081.914000
4493.90    9601.274000
4495.53    9697.070000
4497.17    9717.214000
4498.81    9720.360000
4500.44    9511.157000
4502.08    9487.991000
4503.72    9938.193000
4505.35    10462.850000
4506.99    10230.350000
4508.62    10020.090000
4510.26    10303.900000
4511.90    10094.290000
4513.53    9484.729000
4515.17    9701.169000
4516.81    10225.790000
4518.44    10272.440000
4520.08    10155.070000
4521.71    9810.849000
4523.35    9884.082000
4524.99    10053.210000
4526.62    9785.456000
4528.26    10118.190000
4529.90    10382.440000
4531.53    10402.630000
4533.17    10593.720000
4534.80    10919.610000
4536.44    10893.300000
4538.08    11005.050000
4539.71    11121.880000
4541.35    10926.750000
4542.98    10875.760000
4544.62    10640.010000
4546.26    10649.290000
4547.89    10509.580000
4549.53    10064.820000
4551.17    10285.750000
4552.80    10477.150000
4554.44    10532.500000
4556.07    10330.130000
4557.71    10055.370000
4559.35    9742.656000
4560.98    9658.872000
4562.62    9558.252000
4564.26    9652.689000
4565.89    9614.684000
4567.53    9773.922000
4569.16    9868.126000
4570.80    10045.180000
4572.44    10386.340000
4574.07    10556.850000
4575.71    10302.990000
4577.35    10054.330000
4578.98    10094.230000
4580.62    10108.060000
4582.25    9857.790000
4583.89    9835.877000
4585.53    9922.932000
4587.16    9787.808000
4588.80    9925.000000
4590.43    10386.200000
4592.07    10622.180000
4593.71    10791.530000
4595.34    10725.070000
4596.98    10316.610000
4598.61    10410.420000
4600.25    10800.560000
4601.89    10747.580000
4603.52    10634.000000
4605.16    10614.140000
4606.80    10715.600000
4608.43    10695.200000
4610.07    10368.340000
4611.70    10505.880000
4613.34    10338.260000
4614.98    9900.816000
4616.61    9860.130000
4618.25    9968.632000
4619.89    10252.280000
4621.52    10445.930000
4623.16    10434.000000
4624.79    10532.680000
4626.43    10293.740000
4628.07    10329.930000
4629.70    10300.190000
4631.34    10168.050000
4632.98    10002.910000
4634.61    10348.860000
4636.25    10608.230000
4637.88    10487.280000
4639.52    10581.920000
4641.16    10849.560000
4642.79    11020.420000
4644.43    10897.100000
4646.06    10881.840000
4647.70    11047.030000
4649.34    11036.450000
4650.97    10895.700000
4652.61    10675.320000
4654.25    10822.450000
4655.88    11115.110000
4657.52    10900.730000
4659.15    10848.540000
4660.79    10684.130000
4662.43    10679.960000
4664.06    10631.960000
4665.70    10616.490000
4667.34    10894.680000
4668.97    10582.780000
4670.61    10132.520000
4672.24    10086.340000
4673.88    10302.780000
4675.52    10404.170000
4677.15    10631.000000
4678.79    10588.250000
4680.43    10017.490000
4682.06    10026.580000
4683.70    10372.070000
4685.33    10607.000000
4686.97    10633.940000
4688.61    10567.280000
4690.24    10561.630000
4691.88    10608.210000
4693.52    11014.650000
4695.15    10829.650000
4696.79    10276.480000
4698.42    9928.528000
4700.06    9824.681000
4701.70    9826.416000
4703.33    10043.250000
4704.97    10283.150000
4706.60    10506.390000
4708.24    10590.650000
4709.88    10553.740000
4711.51    10606.350000
4713.15    10248.220000
4714.79    10265.980000
4716.42    10292.540000
4718.06    10589.070000
4719.69    10379.240000
4721.33    10504.040000
4722.97    10450.060000
4724.60    10309.460000
4726.24    10532.630000
4727.88    10538.460000
4729.51    10658.690000
4731.15    10308.620000
4732.78    10153.180000
4734.42    10097.150000
4736.06    10088.440000
4737.69    10062.260000
4739.33    9992.372000
4740.97    10181.160000
4742.60    10130.760000
4744.24    10193.820000
4745.87    10340.190000
4747.51    10235.920000
4749.15    10326.560000
4750.78    10408.890000
4752.42    10563.820000
4754.06    10754.560000
4755.69    10867.670000
4757.33    10788.480000
4758.96    10495.100000
4760.60    10300.970000
4762.24    10091.370000
4763.87    10004.680000
4765.51    10119.630000
4767.15    10088.160000
4768.78    10506.720000
4770.42    10406.120000
4772.05    10653.920000
4773.69    10350.070000
4775.33    10849.010000
4776.96    10525.360000
4778.60    10316.200000
4780.23    10249.680000
4781.87    10725.880000
4783.51    10510.760000
4785.14    10863.720000
4786.78    10609.320000
4788.41    10518.130000
4790.05    10365.540000
4791.69    10418.770000
4793.32    10806.230000
4794.96    10171.110000
4796.60    10125.000000
4798.23    9897.176000
4799.87    10250.600000
4801.51    9886.520000
4803.14    10159.500000
4804.78    10636.270000
4806.41    10490.550000
4808.05    10486.280000
4809.69    10644.060000
4811.32    10747.430000
4812.96    10652.170000
4814.59    10290.310000
4816.23    10846.320000
4817.87    10366.750000
4819.50    10415.580000
4821.14    10276.840000
4822.77    10414.770000
4824.41    10484.230000
4826.05    10681.590000
4827.68    10710.460000
4829.32    10823.010000
4830.96    10362.230000
4832.59    10545.260000
4834.23    10567.830000
4835.86    10536.520000
4837.50    10528.530000
4839.14    10625.990000
4840.77    10538.660000
4842.41    9926.404000
4844.05    10244.280000
4845.68    10419.880000
4847.32    10453.200000
4848.95    10622.110000
4850.59    10746.350000
4852.23    10701.120000
4853.86    10725.620000
4855.50    10650.920000
4857.14    10077.220000
4858.77    10204.410000
4860.41    10305.130000
4862.04    10365.020000
4863.68    10284.440000
4865.32    10230.180000
4866.95    10430.530000
4868.59    10533.110000
4870.23    10278.680000
4871.86    10160.110000
4873.50    10236.170000
4875.13    9905.985000
4876.77    10103.000000
4878.41    9803.667000
4880.04    10146.490000
4881.68    9886.694000
4883.31    9912.945000
4884.95    10151.070000
4886.59    9902.153000
4888.22    9579.590000
4889.86    9185.439000
4891.50    8906.375000
4893.13    8410.301000
4894.77    8243.377000
4896.40    8110.728000
4898.04    8135.734000
4899.68    8747.482000
4901.31    8860.462000
4902.95    8885.958000
4904.59    9105.123000
4906.22    9178.209000
4907.86    9017.361000
4909.49    9227.902000
4911.13    9434.831000
4912.77    9771.970000
4914.40    10073.220000
4916.04    9874.550000
4917.68    9799.661000
4919.31    10002.400000
4920.95    9749.491000
4922.58    9555.647000
4924.22    9646.898000
4925.86    9749.835000
4927.49    9967.842000
4929.13    10138.450000
4930.77    10250.390000
4932.40    10611.880000
4934.04    10704.490000
4935.67    10375.330000
4937.31    10285.570000
4938.95    10172.490000
4940.58    10182.630000
4942.22    10427.510000
4943.85    10435.920000
4945.49    10283.470000
4947.13    10250.630000
4948.76    10380.050000
4950.40    10541.920000
4952.04    10185.870000
4953.67    9789.628000
4955.31    9641.619000
4956.94    9766.396000
4958.58    9581.430000
4960.22    9772.076000
4961.85    10241.330000
4963.49    10428.240000
4965.12    10480.310000
4966.76    10368.180000
4968.40    10166.140000
4970.03    9822.645000
4971.67    9710.143000
4973.31    9855.359000
4974.94    10003.630000
4976.58    9931.362000
4978.22    10340.190000
4979.85    10913.790000
4981.49    10444.230000
4983.12    10475.500000
4984.76    10698.200000
4986.40    10873.710000
4988.03    10801.150000
4989.67    10620.710000
4991.31    10195.100000
4992.94    9931.597000
4994.58    10177.460000
4996.21    10212.940000
4997.85    10339.970000
4999.49    10159.450000
5001.12    10249.140000
5002.76    9970.797000
5004.39    10142.120000
5006.03    10203.860000
5007.67    10003.150000
5009.30    10271.480000
5010.94    10477.270000
5012.57    10284.230000
5014.21    9853.927000
5015.85    9672.604000
5017.48    9301.541000
5019.12    9473.635000
5020.76    9568.136000
5022.39    9568.817000
5024.03    10021.920000
5025.66    10058.540000
5027.30    10074.370000
5028.94    9881.130000
5030.57    10110.120000
5032.21    10124.600000
5033.85    9820.153000
5035.48    9689.688000
5037.12    9628.848000
5038.75    9593.784000
5040.39    9903.975000
5042.03    9999.767000
5043.66    10205.120000
5045.30    9911.771000
5046.94    9784.046000
5048.57    9576.136000
5050.21    9040.361000
5051.84    9197.425000
5053.48    9092.701000
5055.12    9155.065000
5056.75    9587.111000
5058.39    9606.088000
5060.02    9573.033000
5061.66    9198.704000
5063.30    9685.018000
5064.93    9516.769000
5066.57    9978.146000
5068.21    10112.490000
5069.84    10178.750000
5071.48    9715.435000
5073.11    9556.585000
5074.75    9219.622000
5076.39    8758.494000
5078.02    9056.153000
5079.66    9579.253000
5081.30    10023.110000
5082.93    9977.286000
5084.57    9649.423000
5086.20    9463.691000
5087.84    9685.356000
5089.48    9883.435000
5091.11    9997.419000
5092.75    9813.618000
5094.39    10317.690000
5096.02    9879.743000
5097.66    10249.090000
5099.29    10261.110000
5100.93    9951.583000
5102.57    9465.331000
5104.20    9725.322000
5105.84    10034.320000
5107.48    9950.110000
5109.11    9668.567000
5110.75    9729.250000
5112.38    9415.988000
5114.02    9604.040000
5115.66    9398.179000
5117.29    9132.678000
5118.93    9405.254000
5120.56    9569.743000
5122.20    9780.328000
5123.84    9729.701000
5125.47    9730.219000
5127.11    10114.790000
5128.75    9890.604000
5130.38    10084.400000
5132.02    9953.688000
5133.65    9743.201000
5135.29    9451.054000
5136.93    9158.860000
5138.56    9428.130000
5140.20    9796.017000
5141.84    9616.857000
5143.47    9291.115000
5145.11    9481.098000
5146.74    9659.629000
5148.38    9583.022000
5150.02    9635.067000
5151.65    9750.458000
5153.29    9935.386000
5154.93    9914.356000
5156.56    9884.497000
5158.20    9787.946000
5159.83    9720.291000
5161.47    9584.291000
5163.11    9365.616000
5164.74    9383.172000
5166.38    9235.173000
5168.02    9271.367000
5169.65    9654.253000
5171.29    9682.350000
5172.92    9444.615000
5174.56    9318.202000
5176.20    9470.580000
5177.83    9411.468000
5179.47    9417.115000
5181.10    9423.983000
5182.74    9364.018000
5184.38    9397.003000
5186.01    9456.641000
5187.65    9138.300000
5189.29    9260.502000
5190.92    9277.842000
5192.56    9304.177000
5194.19    9664.845000
5195.83    9886.666000
5197.47    9620.326000
5199.10    9371.731000
5200.74    9101.892000
5202.38    8406.530000
5204.01    8175.126000
5205.65    7724.356000
5207.28    7638.726000
5208.92    7801.889000
5210.56    8059.036000
5212.19    8525.194000
5213.83    8944.611000
5215.47    9148.719000
5217.10    9200.179000
5218.74    8613.249000
5220.37    8107.454000
5222.01    8188.922000
5223.65    8848.198000
5225.28    9265.468000
5226.92    9326.068000
5228.56    9031.800000
5230.19    9013.737000
5231.83    8897.376000
5233.46    9236.639000
5235.10    9515.331000
5236.73    9486.162000
5238.37    9076.190000
5240.01    9183.798000
5241.64    8780.934000
5243.28    8476.424000
5244.92    8516.350000
5246.55    8822.095000
5248.19    9154.077000
5249.82    9111.147000
5251.46    9398.615000
5253.10    9699.426000
5254.73    9582.624000
5256.37    9161.396000
5258.01    9354.688000
5259.64    9593.821000
5261.28    9050.219000
5262.91    8880.369000
5264.55    8830.645000
5266.19    9014.295000
5267.82    9180.341000
5269.46    9394.209000
5271.10    9635.954000
5272.73    9351.604000
5274.37    9438.472000
5276.00    9991.910000
5277.64    9746.458000
5279.28    9869.628000
5280.91    9773.405000
5282.55    9668.530000
5284.19    9817.877000
5285.82    9268.907000
5287.46    9345.100000
5289.09    9620.185000
5290.73    9429.398000
5292.37    9579.204000
5294.00    9567.356000
5295.64    9708.584000
5297.27    9719.145000
5298.91    9331.109000
5300.55    8877.336000
5302.18    8382.217000
5303.82    8115.295000
5305.46    8124.043000
5307.09    8349.696000
5308.73    8550.327000
5310.36    8659.616000
5312.00    8963.578000
5313.64    9268.648000
5315.27    9551.272000
5316.91    9506.078000
5318.55    9537.688000
5320.18    9444.045000
5321.82    9411.029000
5323.45    9750.268000
5325.09    9850.675000
5326.73    9896.781000
5328.36    10022.930000
5330.00    9716.222000
5331.64    9782.438000
5333.27    9688.114000
5334.91    9434.586000
5336.54    9389.211000
5338.18    9352.039000
5339.82    9665.541000
5341.45    9758.547000
5343.09    9755.263000
5344.73    9730.390000
5346.36    9733.318000
5348.00    9997.163000
5349.63    10189.360000
5351.27    9957.478000
5352.91    9959.646000
5354.54    9925.009000
5356.18    9811.731000
5357.81    9738.574000
5359.45    9473.229000
5361.09    9317.776000
5362.72    9317.974000
5364.36    9039.798000
5366.00    8994.211000
5367.63    8985.480000
5369.27    8787.812000
5370.90    9244.280000
5372.54    9761.949000
5374.18    9655.206000
5375.81    9789.824000
5377.45    9336.719000
5379.09    9335.224000
5380.72    9272.774000
5382.36    9630.111000
5383.99    9563.133000
5385.63    9683.464000
5387.27    9458.225000
5388.90    9657.724000
5390.54    10083.080000
5392.18    9965.699000
5393.81    10252.370000
5395.45    10093.120000
5397.08    10141.110000
5398.72    10126.010000
5400.36    9788.924000
5401.99    10036.100000
5403.63    9960.565000
5405.27    9545.137000
5406.90    9155.797000
5408.54    9213.631000
5410.17    9237.261000
5411.81    9331.756000
5413.45    9585.600000
5415.08    10124.160000
5416.72    9651.963000
5418.35    9638.883000
5419.99    9722.994000
5421.63    9624.235000
5423.26    9705.338000
5424.90    9716.888000
5426.53    9520.624000
5428.17    9660.915000
5429.81    9612.079000
5431.44    9314.197000
5433.08    9418.605000
5434.72    9341.744000
5436.35    9156.333000
5437.99    9274.354000
5439.62    9417.510000
5441.26    9412.232000
5442.90    9094.824000
5444.53    8743.503000
5446.17    9042.531000
5447.81    9016.074000
5449.44    9125.427000
5451.08    9371.861000
5452.72    9518.383000
5454.35    9500.766000
5455.99    9701.344000
5457.62    9610.947000
5459.26    9671.023000
5460.90    9783.491000
5462.53    9576.477000
5464.17    9645.251000
5465.80    9585.042000
5467.44    9537.017000
5469.08    9342.369000
5470.71    9249.126000
5472.35    9264.558000
5473.98    9173.617000
5475.62    9280.729000
5477.26    9857.773000
5478.89    10091.100000
5480.53    9704.640000
5482.17    9893.478000
5483.80    9743.927000
5485.44    9193.410000
5487.07    9240.239000
5488.71    9496.604000
5490.35    9470.805000
5491.98    9678.850000
5493.62    9600.455000
5495.26    9668.048000
5496.89    9376.382000
5498.53    9455.543000
5500.16    9667.928000
5501.80    9261.794000
5503.44    9478.387000
5505.07    9765.698000
5506.71    9786.753000
5508.35    9638.483000
5509.98    9742.773000
5511.62    9253.356000
5513.25    9564.346000
5514.89    9062.279000
5516.53    9203.777000
5518.16    9119.684000
5519.80    9211.726000
5521.44    9521.130000
5523.07    9573.656000
5524.71    9537.435000
5526.34    9348.524000
5527.98    9562.103000
5529.62    9681.506000
5531.25    9547.476000
5532.89    9765.750000
5534.52    9768.910000
5536.16    9664.644000
5537.80    9848.288000
5539.43    9604.138000
5541.07    9595.914000
5542.71    9533.998000
5544.34    9608.478000
5545.98    9607.270000
5547.61    9358.891000
5549.25    9307.633000
5550.89    9438.380000
5552.52    9662.833000
5554.16    9514.400000
5555.80    9367.829000
5557.43    9482.763000
5559.07    9676.475000
5560.70    9919.596000
5562.34    9880.308000
5563.98    9830.927000
5565.61    9808.242000
5567.25    9570.101000
5568.89    9494.350000
5570.52    9696.835000
5572.16    9984.929000
5573.79    9892.251000
5575.43    9686.438000
5577.07    9851.803000
5578.70    9958.425000
5580.34    9756.084000
5581.98    9752.909000
5583.61    9745.552000
5585.25    9618.910000
5586.88    9611.073000
5588.52    9907.829000
5590.16    4490.138000
5591.79    9989.076000
5593.43    9724.873000
5595.06    9885.133000
5596.70    9842.955000
5598.34    9682.966000
5599.97    9723.463000
5601.61    9820.953000
5603.24    9713.683000
5604.88    9437.119000
5606.52    9452.192000
5608.15    9346.578000
5609.79    9304.367000
5611.43    9323.230000
5613.06    9388.451000
5614.70    9455.911000
5616.34    9526.275000
5617.97    9635.459000
5619.61    9161.203000
5621.24    9306.531000
5622.88    9403.149000
5624.52    9360.082000
5626.15    9241.063000
5627.79    9141.377000
5629.43    9040.078000
5631.06    8946.068000
5632.70    8989.792000
5634.33    8986.229000
5635.97    8996.191000
5637.60    9170.707000
5639.24    9106.742000
5640.88    9016.504000
5642.51    8967.383000
5644.15    9344.565000
5645.79    9470.641000
5647.42    9635.827000
5649.06    9764.146000
5650.69    9416.416000
5652.33    9265.727000
5653.97    9230.629000
5655.60    9248.156000
5657.24    9183.713000
5658.88    9064.958000
5660.51    9067.452000
5662.15    9184.783000
5663.78    9043.075000
5665.42    9192.619000
5667.06    9326.938000
5668.69    9474.610000
5670.33    9304.496000
5671.97    9311.068000
5673.60    9297.004000
5675.24    9270.241000
5676.88    9218.106000
5678.51    9250.730000
5680.15    9241.864000
5681.78    9118.472000
5683.42    9156.870000
5685.06    9307.415000
5686.69    9388.460000
5688.33    9162.074000
5689.96    8995.196000
5691.60    9051.676000
5693.24    9149.922000
5694.87    9166.369000
5696.51    9119.430000
5698.15    8961.445000
5699.78    8738.866000
5701.42    8615.187000
5703.05    8750.812000
5704.69    8962.654000
5706.33    9206.487000
5707.96    9216.826000
5709.60    9014.646000
5711.23    9005.273000
5712.87    9155.143000
5714.51    8940.415000
5716.14    9069.656000
5717.78    9228.225000
5719.42    9451.757000
5721.05    9153.049000
5722.69    9082.180000
5724.32    9099.218000
5725.96    9297.023000
5727.60    9266.611000
5729.23    9123.680000
5730.87    9080.132000
5732.51    9329.089000
5734.14    9407.613000
5735.78    9210.309000
5737.41    9038.684000
5739.05    9160.740000
5740.69    8930.688000
5742.32    8500.406000
5743.96    8059.127000
5745.60    7898.505000
5747.23    7896.600000
5748.87    7778.807000
5750.50    7632.643000
5752.14    7810.123000
5753.78    8699.100000
5755.41    8899.164000
5757.05    8764.379000
5758.69    9210.035000
5760.32    9396.859000
5761.96    9468.555000
5763.59    9437.470000
5765.23    9366.705000
5766.87    9230.465000
5768.50    9110.135000
5770.14    8994.271000
5771.77    9116.645000
5773.41    9095.378000
5775.05    9109.708000
5776.68    9231.047000
5778.32    9237.658000
5779.96    9356.704000
5781.59    9376.023000
5783.23    9179.926000
5784.86    9325.874000
5786.50    9280.999000
5788.14    9199.943000
5789.77    9130.146000
5791.41    9020.034000
5793.05    8980.479000
5794.68    8961.308000
5796.32    9007.047000
5797.95    9082.205000
5799.59    9148.383000
5801.23    9173.464000
5802.86    9054.959000
5804.50    9224.235000
5806.14    9381.775000
5807.77    9518.890000
5809.41    9530.065000
5811.04    9361.696000
5812.68    9169.460000
5814.32    8939.704000
5815.95    9119.124000
5817.59    9172.849000
5819.23    9155.072000
5820.86    9066.715000
5822.50    8890.549000
5824.13    8627.701000
5825.77    8577.076000
5827.40    8864.086000
5829.04    8821.376000
5830.68    9117.322000
5832.31    9358.279000
5833.95    9491.796000
5835.59    9452.701000
5837.22    9371.514000
5838.86    9299.943000
5840.49    9306.794000
5842.13    9225.329000
5843.77    9259.713000
5845.40    9285.775000
5847.04    9218.875000
5848.68    9253.341000
5850.31    9189.607000
5851.95    9135.054000
5853.59    9473.066000
5855.22    9370.905000
5856.86    9311.674000
5858.49    9246.416000
5860.13    9078.349000
5861.77    9125.252000
5863.40    9262.031000
5865.04    9435.034000
5866.67    9318.814000
5868.31    9067.397000
5869.95    8974.729000
5871.58    9018.078000
5873.22    9487.226000
5874.85    9317.807000
5876.49    9191.363000
5878.13    9154.932000
5879.76    9182.701000
5881.40    9082.350000
5883.04    9065.151000
5884.67    9230.725000
5886.31    9128.738000
5887.94    8852.934000
5889.58    8620.790000
5891.22    8563.398000
5892.85    8697.877000
5894.49    8571.841000
5896.13    8434.495000
5897.76    8454.733000
5899.40    8286.210000
5901.03    8421.774000
5902.67    8592.646000
5904.31    8595.690000
5905.94    8750.605000
5907.58    8865.116000
5909.22    8932.614000
5910.85    8769.273000
5912.49    8962.549000
5914.12    9046.754000
5915.76    9055.333000
5917.40    8968.205000
5919.03    8714.613000
5920.67    8651.123000
5922.31    8710.190000
5923.94    8762.019000
5925.58    8485.910000
5927.21    8368.100000
5928.85    8426.982000
5930.49    8163.484000
5932.12    8127.616000
5933.76    8102.546000
5935.40    8098.139000
5937.03    8088.825000
5938.67    8040.162000
5940.30    8055.153000
5941.94    8260.461000
5943.58    8324.100000
5945.21    8304.520000
5946.85    8317.544000
5948.48    8515.820000
5950.12    8699.264000
5951.76    8767.135000
5953.39    8788.710000
5955.03    8808.613000
5956.67    8717.074000
5958.30    8736.594000
5959.94    8784.354000
5961.57    8824.359000
5963.21    8734.738000
5964.85    8711.621000
5966.48    8716.421000
5968.12    8860.630000
5969.76    8436.960000
5971.39    8269.200000
5973.03    8254.854000
5974.66    8366.019000
5976.30    8639.092000
5977.94    8765.414000
5979.57    8758.021000
5981.21    8737.292000
5982.85    8758.193000
5984.48    8754.907000
5986.12    8734.427000
5987.75    8657.079000
5989.39    8732.699000
5991.03    8752.425000
5992.66    8666.177000
5994.30    8455.605000
5995.94    8601.543000
5997.57    8721.957000
5999.21    8660.002000
6000.84    8753.957000
6002.48    8649.537000
6004.12    8530.149000
6005.75    8614.565000
6007.39    8648.356000
6009.02    8698.292000
6010.66    8766.339000
6012.30    8983.647000
6013.93    8852.061000
6015.57    8830.461000
6017.20    8828.169000
6018.84    8614.849000
6020.48    8731.063000
6022.11    8636.203000
6023.75    8391.887000
6025.39    8533.054000
6027.02    8567.621000
6028.66    8639.375000
6030.30    8760.553000
6031.93    8901.437000
6033.57    8853.165000
6035.20    8739.577000
6036.84    8551.839000
6038.48    8670.188000
6040.11    8680.370000
6041.75    8629.960000
6043.39    8502.773000
6045.02    8527.785000
6046.66    8479.636000
6048.29    8488.013000
6049.93    8702.368000
6051.56    8622.307000
6053.20    8702.097000
6054.84    8776.566000
6056.48    8788.816000
6058.11    8825.040000
6059.75    8619.078000
6061.38    8404.876000
6063.02    8634.687000
6064.65    8440.044000
6066.29    8488.238000
6067.93    8621.854000
6069.56    8704.184000
6071.20    8712.188000
6072.84    8733.513000
6074.47    8748.625000
6076.11    8827.098000
6077.74    8916.539000
6079.38    8912.169000
6081.02    8829.090000
6082.65    8994.851000
6084.29    8917.394000
6085.93    8850.996000
6087.56    8797.144000
6089.20    8978.355000
6090.84    8963.700000
6092.47    8880.283000
6094.11    8716.397000
6095.74    8628.758000
6097.38    8704.504000
6099.02    8745.283000
6100.65    8693.375000
6102.29    8531.229000
6103.92    8493.266000
6105.56    8498.755000
6107.20    8652.933000
6108.83    8604.014000
6110.47    8748.820000
6112.10    8900.977000
6113.74    8871.213000
6115.38    9052.674000
6117.01    9045.090000
6118.65    8943.993000
6120.29    8736.514000
6121.92    8533.665000
6123.56    8459.955000
6125.19    8451.028000
6126.83    8740.095000
6128.47    8603.955000
6130.10    8554.196000
6131.74    8551.462000
6133.38    8596.941000
6135.01    8439.649000
6136.65    8424.609000
6138.28    8552.418000
6139.92    8494.163000
6141.56    8562.940000
6143.19    8564.584000
6144.83    8485.434000
6146.47    8216.410000
6148.10    8371.162000
6149.74    8513.525000
6151.37    8593.495000
6153.01    8421.132000
6154.65    8619.314000
6156.28    8779.914000
6157.92    8724.540000
6159.56    8532.088000
6161.19    8389.200000
6162.83    8266.777000
6164.46    8230.988000
6166.10    8323.616000
6167.74    8344.564000
6169.37    8312.789000
6171.01    8133.264000
6172.65    8400.255000
6174.28    8502.652000
6175.92    8490.088000
6177.55    8119.192000
6179.19    8160.984000
6180.83    8225.016000
6182.46    8290.353000
6184.10    8156.467000
6185.73    8233.232000
6187.37    8320.275000
6189.01    8417.266000
6190.64    8133.488000
6192.28    8160.277000
6193.92    8212.413000
6195.55    8325.206000
6197.19    8324.769000
6198.82    7891.492000
6200.46    7575.320000
6202.10    7538.875000
6203.73    7269.236000
6205.37    7662.065000
6207.01    7963.062000
6208.64    7843.046000
6210.28    7937.444000
6211.91    8002.319000
6213.55    8071.171000
6215.19    8216.828000
6216.82    8134.924000
6218.46    8071.771000
6220.10    8040.330000
6221.73    8243.420000
6223.37    8138.927000
6225.00    8091.378000
6226.64    8086.560000
6228.28    8463.350000
6229.91    8341.918000
6231.55    8273.367000
6233.19    8218.878000
6234.82    8106.537000
6236.46    8029.039000
6238.09    8084.624000
6239.73    8256.539000
6241.36    8080.936000
6243.00    8119.524000
6244.64    8125.684000
6246.27    8116.658000
6247.91    7944.615000
6249.55    8019.502000
6251.18    8045.739000
6252.82    7988.642000
6254.45    8049.854000
6256.09    8034.179000
6257.73    7960.958000
6259.36    7802.937000
6261.00    7751.594000
6262.64    7758.201000
6264.27    7769.142000
6265.91    7787.609000
6267.55    8064.781000
6269.18    8025.274000
6270.82    7897.856000
6272.45    7799.805000
6274.09    7619.393000
6275.73    7552.734000
6277.36    7510.566000
6279.00    7425.679000
6280.64    7376.027000
6282.27    7507.140000
6283.91    7721.804000
6285.54    7664.508000
6287.18    7535.807000
6288.81    7483.209000
6290.45    7460.507000
6292.09    7321.982000
6293.72    7288.964000
6295.36    7455.628000
6297.00    7861.168000
6298.63    8405.525000
6300.27    8617.559000
6301.90    8460.125000
6303.54    7729.736000
6305.18    7398.233000
6306.81    7586.012000
6308.45    7738.344000
6310.09    7760.268000
6311.72    7871.235000
6313.36    7866.851000
6314.99    7878.028000
6316.63    8028.465000
6318.27    7983.581000
6319.90    8009.003000
6321.54    8017.477000
6323.18    7897.403000
6324.81    7731.307000
6326.45    7788.605000
6328.08    7911.331000
6329.72    8017.526000
6331.36    7978.014000
6332.99    8040.055000
6334.63    8126.120000
6336.27    7909.772000
6337.90    7860.194000
6339.54    7825.014000
6341.17    7774.224000
6342.81    7816.494000
6344.45    7764.825000
6346.08    7776.015000
6347.72    7851.883000
6349.35    7815.402000
6350.99    7999.380000
6352.63    8040.996000
6354.26    7892.329000
6355.90    7901.567000
6357.54    7923.164000
6359.17    7916.092000
6360.81    7889.420000
6362.44    7847.067000
6364.08    7815.854000
6365.72    7813.929000
6367.35    7919.770000
6368.99    7831.830000
6370.63    7867.983000
6372.26    7943.413000
6373.90    8113.795000
6375.53    7998.517000
6377.17    7979.223000
6378.81    7981.258000
6380.44    8009.605000
6382.08    7812.430000
6383.72    7765.485000
6385.35    7793.240000
6386.99    8042.216000
6388.62    7966.888000
6390.26    7861.372000
6391.90    7718.176000
6393.53    7970.668000
6395.17    7905.847000
6396.81    7927.655000
6398.44    8032.871000
6400.08    7840.141000
6401.71    7780.494000
6403.35    7766.699000
6404.99    7833.981000
6406.62    7640.311000
6408.26    7558.639000
6409.90    7557.525000
6411.53    7735.174000
6413.17    7923.445000
6414.80    7928.531000
6416.44    7900.356000
6418.08    7859.585000
6419.71    7957.651000
6421.35    7991.475000
6422.98    7994.101000
6424.62    7951.813000
6426.26    7937.411000
6427.89    7956.917000
6429.53    7950.552000
6431.16    7799.157000
6432.80    7877.124000
6434.44    7876.362000
6436.07    7842.244000
6437.71    7884.027000
6439.35    7933.391000
6440.98    7914.695000
6442.62    7835.033000
6444.26    7806.456000
6445.89    7645.568000
6447.53    7643.857000
6449.16    7763.514000
6450.80    7894.558000
6452.44    7765.156000
6454.07    7674.984000
6455.71    7627.997000
6457.35    7540.346000
6458.98    7529.439000
6460.62    7550.557000
6462.25    7659.914000
6463.89    7579.688000
6465.52    7573.010000
6467.16    7607.263000
6468.80    7772.021000
6470.44    7614.564000
6472.07    7549.405000
6473.71    7495.528000
6475.34    7451.764000
6476.98    7330.921000
6478.61    7355.116000
6480.25    7437.765000
6481.89    7694.388000
6483.52    7460.311000
6485.16    7412.085000
6486.80    7441.249000
6488.43    7631.164000
6490.07    7514.677000
6491.70    7511.693000
6493.34    7540.996000
6494.98    7455.874000
6496.61    7426.451000
6498.25    7492.451000
6499.89    7616.094000
6501.52    7646.333000
6503.16    7495.055000
6504.80    7455.268000
6506.43    7530.634000
6508.07    7554.095000
6509.70    7635.764000
6511.34    7644.195000
6512.98    7573.333000
6514.61    7444.444000
6516.25    7432.123000
6517.88    7428.078000
6519.52    7462.535000
6521.16    7559.393000
6522.79    7672.040000
6524.43    7773.677000
6526.06    7865.980000
6527.70    7685.131000
6529.34    7580.715000
6530.97    7540.464000
6532.61    7775.557000
6534.25    7860.922000
6535.88    7745.890000
6537.52    7532.051000
6539.15    7157.047000
6540.79    6902.202000
6542.43    6812.750000
6544.06    6796.690000
6545.70    7009.778000
6547.34    7072.161000
6548.97    7245.712000
6550.61    7484.091000
6552.24    7446.396000
6553.88    7505.437000
6555.52    7584.738000
6557.15    7690.823000
6558.79    7512.800000
6560.43    7580.086000
6562.06    7611.579000
6563.70    7624.527000
6565.33    7567.382000
6566.97    7526.445000
6568.61    7481.655000
6570.24    7461.965000
6571.88    7719.967000
6573.52    7674.810000
6575.15    7595.322000
6576.79    7540.881000
6578.42    7537.274000
6580.06    7460.331000
6581.70    7387.201000
6583.33    7433.655000
6584.97    7541.435000
6586.60    7492.971000
6588.24    7415.538000
6589.88    7503.204000
6591.51    7538.115000
6593.15    7571.213000
6594.79    7600.785000
6596.42    7789.499000
6598.06    7605.108000
6599.69    7493.918000
6601.33    7404.574000
6602.97    7259.411000
6604.60    7133.321000
6606.24    7247.143000
6607.88    7580.192000
6609.51    7735.243000
6611.15    7625.542000
6612.78    7482.986000
6614.42    7322.100000
6616.06    7026.552000
6617.69    7043.777000
6619.33    7064.224000
6620.97    7099.954000
6622.60    7084.615000
6624.24    7270.550000
6625.87    7465.251000
6627.51    7666.900000
6629.15    8013.194000
6630.78    8209.795000
6632.42    8264.966000
6634.06    7936.097000
6635.69    7524.082000
6637.33    7343.005000
6638.96    7220.216000
6640.60    7136.040000
6642.24    7154.006000
6643.87    7276.585000
6645.51    7405.800000
6647.15    7340.083000
6648.78    7199.821000
6650.42    7219.066000
6652.05    7310.880000
6653.69    7317.376000
6655.32    7239.913000
6656.96    7261.145000
6658.60    7340.808000
6660.23    7244.394000
6661.87    7186.835000
6663.51    7212.420000
6665.14    7338.618000
6666.78    7423.811000
6668.41    7404.096000
6670.05    7364.306000
6671.69    7329.649000
6673.32    7006.561000
6674.96    6983.234000
6676.60    7031.993000
6678.23    7209.229000
6679.87    7127.184000
6681.51    7095.702000
6683.14    7087.595000
6684.78    7166.554000
6686.41    7331.405000
6688.05    7374.273000
6689.69    7352.912000
6691.32    7189.159000
6692.96    7129.042000
6694.60    7141.548000
6696.23    7156.600000
6697.87    7119.898000
6699.50    7186.354000
6701.14    7200.021000
6702.77    7164.616000
6704.41    6942.124000
6706.05    7018.468000
6707.68    7037.084000
6709.32    7002.506000
6710.96    7136.423000
6712.59    7106.121000
6714.23    7011.999000
6715.86    6851.253000
6717.50    6999.836000
6719.14    6977.716000
6720.77    6943.338000
6722.41    6925.567000
6724.05    6832.712000
6725.68    6779.057000
6727.32    6745.668000
6728.95    6762.129000
6730.59    6986.685000
6732.23    7049.354000
6733.86    7042.252000
6735.50    6922.504000
6737.14    6993.808000
6738.77    6965.593000
6740.41    6940.485000
6742.04    7051.985000
6743.68    6957.665000
6745.32    6921.423000
6746.95    6883.906000
6748.59    6826.574000
6750.23    6835.095000
6751.86    6927.356000
6753.50    7034.957000
6755.13    6935.745000
6756.77    6797.031000
6758.41    6819.927000
6760.04    6929.560000
6761.68    6952.401000
6763.31    7201.668000
6764.95    7309.144000
6766.59    7303.444000
6768.22    7028.378000
6769.86    6925.516000
6771.50    6906.114000
6773.13    7024.901000
6774.77    6954.839000
6776.40    6940.794000
6778.04    6974.575000
6779.68    7112.794000
6781.31    7017.452000
6782.95    6979.752000
6784.59    6929.456000
6786.22    6852.859000
6787.86    6717.530000
6789.49    6618.015000
6791.13    6542.658000
6792.77    6560.400000
6794.40    6657.976000
6796.04    6687.239000
6797.68    6678.747000
6799.31    6643.425000
6800.95    6545.876000
6802.58    6528.265000
6804.22    6553.507000
6805.86    6775.938000
6807.49    6697.867000
6809.13    6709.878000
6810.77    6763.199000
6812.40    6870.190000
6814.04    6859.955000
6815.67    6811.550000
6817.31    6722.347000
6818.95    6352.963000
6820.58    6427.481000
6822.22    6499.825000
6823.85    6580.073000
6825.49    6682.656000
6827.13    6787.554000
6828.76    6832.794000
6830.40    6797.098000
6832.04    6518.062000
6833.67    6326.218000
6835.31    6271.836000
6836.94    6550.138000
6838.58    6576.667000
6840.22    6540.762000
6841.85    6464.334000
6843.49    6300.499000
6845.12    6517.958000
6846.76    6604.068000
6848.40    6617.638000
6850.03    6492.108000
6851.67    6381.917000
6853.31    6373.966000
6854.94    6409.825000
6856.58    6569.268000
6858.22    6530.684000
6859.85    6524.349000
6861.49    6517.903000
6863.12    6442.542000
6864.76    6004.889000
6866.40    5550.279000
6868.03    5047.410000
6869.67    4717.688000
6871.31    4631.277000
6872.94    4654.517000
6874.58    4800.665000
6876.21    5229.751000
6877.85    5490.904000
6879.48    5740.236000
6881.12    6015.775000
6882.76    5939.193000
6884.40    5854.688000
6886.03    5725.721000
6887.67    5509.473000
6889.30    5471.216000
6890.94    5377.010000
6892.57    5351.902000
6894.21    5586.727000
6895.85    5683.821000
6897.48    5652.087000
6899.12    5609.612000
6900.76    5707.516000
6902.39    5652.922000
6904.03    5656.408000
6905.66    5670.854000
6907.30    5673.030000
6908.94    5828.851000
6910.57    5865.208000
6912.21    5855.662000
6913.85    6100.566000
6915.48    6169.121000
6917.12    6124.692000
6918.76    5999.545000
6920.39    6164.816000
6922.03    6033.363000
6923.66    5981.954000
6925.30    6009.734000
6926.94    5973.596000
6928.57    6039.532000
6930.21    6024.600000
6931.84    5907.353000
6933.48    5883.160000
6935.12    5868.491000
6936.75    5815.876000
6938.39    5703.316000
6940.02    5874.555000
6941.66    5918.498000
6943.30    5956.831000
6944.93    6047.197000
6946.57    6112.436000
6948.21    6036.954000
6949.84    5955.377000
6951.48    6015.750000
6953.11    5852.116000
6954.75    5919.025000
6956.39    6020.665000
6958.02    5943.717000
6959.66    5915.677000
6961.30    5912.222000
6962.93    5916.031000
6964.57    5996.661000
6966.20    6065.893000
6967.84    6130.757000
6969.48    6187.343000
6971.11    6226.113000
6972.75    6152.824000
6974.39    6015.463000
6976.02    5821.323000
6977.66    5934.134000
6979.29    6004.730000
6980.93    5936.377000
6982.57    5701.169000
6984.20    5824.919000
6985.84    5779.225000
6987.48    5782.421000
6989.11    5908.783000
6990.75    6024.416000
6992.38    5926.096000
6994.02    5818.873000
6995.66    5754.375000
6997.29    5947.285000
6998.93    5890.344000
7000.56    5781.507000
7002.20    5682.816000
7003.84    5861.784000
7005.47    5858.345000
7007.11    5830.819000
7008.75    5971.533000
7010.38    5908.804000
7012.02    5847.960000
7013.65    5788.147000
7015.29    5839.267000
7016.93    5826.934000
7018.56    5833.800000
7020.20    5849.511000
7021.84    5974.203000
7023.47    5730.786000
7025.11    5666.503000
7026.74    5725.658000
7028.38    5619.744000
7030.02    5668.782000
7031.65    5779.609000
7033.29    5961.380000
7034.93    5816.558000
7036.56    5879.941000
7038.20    5919.845000
7039.83    5934.516000
7041.47    5857.688000
7043.11    5899.148000
7044.74    5954.991000
7046.38    6044.679000
7048.02    5850.778000
7049.65    5940.687000
7051.29    5984.919000
7052.92    5781.238000
7054.56    5743.510000
7056.20    5826.492000
7057.83    5894.079000
7059.47    5772.243000
7061.10    5752.028000
7062.74    5665.898000
7064.38    5578.154000
7066.01    5746.580000
7067.65    5582.282000
7069.28    5653.542000
7070.92    5815.552000
7072.56    5642.260000
7074.19    5818.139000
7075.83    5828.043000
7077.47    5716.421000
7079.10    5796.579000
7080.74    5797.136000
7082.38    5818.827000
7084.01    5858.027000
7085.65    5722.398000
7087.28    5786.800000
7088.92    5833.170000
7090.56    5870.840000
7092.19    5921.410000
7093.83    5832.496000
7095.47    5850.569000
7097.10    6130.475000
7098.74    5966.891000
7100.37    5756.117000
7102.01    5587.455000
7103.65    5587.677000
7105.28    5565.195000
7106.92    5534.269000
7108.56    5526.031000
7110.19    5649.825000
7111.83    5424.471000
7113.46    5445.437000
7115.10    5546.487000
7116.73    5726.988000
7118.37    5614.971000
7120.01    5511.439000
7121.64    5407.311000
7123.28    5385.294000
7124.92    5556.958000
7126.55    5653.177000
7128.19    5697.414000
7129.82    5692.762000
7131.46    5623.711000
7133.10    5576.608000
7134.73    5542.713000
7136.37    5304.497000
7138.01    5323.393000
7139.64    5342.923000
7141.28    5379.742000
7142.91    5344.089000
7144.55    5372.819000
7146.19    5402.610000
7147.82    5447.016000
7149.46    5410.433000
7151.10    5286.162000
7152.73    5191.440000
7154.37    5226.502000
7156.00    5154.397000
7157.64    5153.354000
7159.28    5164.725000
7160.91    5194.049000
7162.55    5264.091000
7164.19    5175.191000
7165.82    5001.757000
7167.46    4639.417000
7169.09    4577.833000
7170.73    4467.591000
7172.37    4330.426000
7174.00    4212.932000
7175.64    4250.788000
7177.27    4254.587000
7178.91    4231.452000
7180.55    4170.862000
7182.18    4094.354000
7183.82    4043.177000
7185.46    3995.099000
7187.09    4090.351000
7188.73    4009.771000
7190.36    3922.386000
7192.00    3817.162000
7193.64    3977.219000
7195.27    4040.742000
7196.91    4040.114000
7198.55    3949.756000
7200.18    3880.041000
7201.82    3930.594000
7203.45    4015.906000
7205.09    4189.381000
7206.73    4389.235000
7208.36    4472.220000
7210.00    4550.268000
7211.64    4697.809000
7213.27    4674.983000
7214.91    4656.721000
7216.54    4664.008000
7218.18    4836.022000
7219.82    4915.066000
7221.45    4895.569000
7223.09    4829.386000
7224.73    4720.360000
7226.36    4664.463000
7228.00    4633.122000
7229.63    4604.973000
7231.27    4545.776000
7232.91    4202.473000
7234.54    4060.478000
7236.18    4046.214000
7237.81    4232.021000
7239.45    4257.969000
7241.09    4270.759000
7242.72    4269.623000
7244.36    4394.380000
7246.00    4405.346000
7247.63    4360.453000
7249.27    4243.503000
7250.90    4189.451000
7252.54    4110.667000
7254.18    4122.731000
7255.81    4360.426000
7257.45    4309.543000
7259.09    4239.202000
7260.72    4189.525000
7262.36    4223.060000
7263.99    4119.079000
7265.63    4155.157000
7267.27    4235.987000
7268.90    4410.181000
7270.54    4426.476000
7272.18    4356.133000
7273.81    4276.729000
7275.45    4383.155000
7277.08    4362.503000
7278.72    4379.663000
7280.36    4423.625000
7281.99    4644.801000
7283.63    4602.810000
7285.27    4612.683000
7286.90    4633.187000
7288.54    4252.967000
7290.17    4175.213000
7291.81    4158.374000
7293.44    4199.137000
7295.08    4534.328000
7296.72    4541.289000
7298.35    4509.710000
7299.99    4441.933000
7301.63    4211.492000
7303.26    4131.572000
7304.90    4144.337000
7306.53    4343.539000
7308.17    4579.829000
7309.81    4454.750000
7311.44    4355.694000
7313.08    4458.310000
7314.72    4396.030000
7316.35    4364.835000
7317.99    4369.297000
7319.62    4522.809000
7321.26    4562.493000
7322.90    4588.707000
7324.53    4636.492000
7326.17    4872.571000
7327.81    4919.226000
7329.44    4823.837000
7331.08    4667.692000
7332.72    4607.968000
7334.35    4778.283000
7335.99    4748.860000
7337.62    4590.332000
7339.26    4609.764000
7340.90    4542.480000
7342.53    4568.542000
7344.17    4678.604000
7345.80    4531.520000
7347.44    4612.731000
7349.08    4597.525000
7350.71    4472.728000
7352.35    4552.033000
7353.98    4501.981000
7355.62    4546.414000
7357.26    4797.068000
7358.89    4715.616000
7360.53    4646.089000
7362.17    4592.101000
7363.80    4581.684000
7365.44    4484.941000
7367.07    4629.633000
7368.71    4729.673000
7370.35    4541.885000
7371.98    4636.190000
7373.62    4628.782000
7375.26    4591.065000
7376.89    4558.333000
7378.53    4550.208000
7380.16    4538.941000
7381.80    4529.773000
7383.44    4598.941000
7385.07    4569.131000
7386.71    4578.943000
7388.35    4591.797000
7389.98    4483.917000
7391.62    4458.361000
7393.25    4522.057000
7394.89    4647.916000
7396.53    4696.081000
7398.16    4707.807000
7399.80    4747.576000
7401.44    4820.302000
7403.07    4655.739000
7404.71    4627.666000
7406.34    4561.589000
7407.98    4442.492000
7409.62    4322.636000
7411.25    4420.875000
7412.89    4473.467000
7414.52    4395.791000
7416.16    4400.350000
7417.80    4480.606000
7419.43    4541.631000
7421.07    4527.767000
7422.71    4548.326000
7424.34    4624.072000
7425.98    4698.637000
7427.61    4725.081000
7429.25    4590.461000
7430.89    4557.465000
7432.52    4562.609000
7434.16    4638.337000
7435.80    4523.299000
7437.43    4480.435000
7439.07    4464.671000
7440.70    4530.233000
7442.34    4420.937000
7443.98    4373.064000
7445.61    4356.979000
7447.25    4392.890000
7448.89    4450.502000
7450.52    4506.392000
7452.16    4564.860000
7453.79    4503.715000
7455.43    4547.472000
7457.07    4575.837000
7458.70    4602.087000
7460.34    4414.382000
7461.98    4324.254000
7463.61    4272.541000
7465.25    4291.398000
7466.88    4207.234000
7468.52    4207.919000
7470.16    4213.026000
7471.79    4217.972000
7473.43    4224.269000
7475.06    4246.057000
7476.70    4281.979000
7478.34    4385.323000
7479.97    4516.290000
7481.61    4491.338000
7483.24    4415.651000
7484.88    4355.877000
7486.52    4308.504000
7488.15    4359.939000
7489.79    4438.987000
7491.43    4426.197000
7493.06    4212.024000
7494.70    4223.044000
7496.34    4365.748000
7497.97    4406.917000
7499.61    4210.008000
7501.24    4171.766000
7502.88    4275.242000
7504.52    4569.368000
7506.15    4425.970000
7507.79    4375.754000
7509.43    4468.597000
7511.06    4228.315000
7512.70    4184.583000
7514.33    4155.746000
7515.97    4141.585000
7517.60    4189.607000
7519.24    4299.018000
7520.88    4381.019000
7522.52    4398.368000
7524.15    4179.203000
7525.79    4167.960000
7527.42    4192.668000
7529.06    4227.251000
7530.69    4192.235000
7532.33    4225.407000
7533.97    4245.818000
7535.60    4101.497000
7537.24    4140.816000
7538.88    4159.794000
7540.51    4152.796000
7542.15    4061.782000
7543.78    4035.586000
7545.42    4033.339000
7547.06    4035.463000
7548.69    3988.460000
7550.33    3940.784000
7551.97    3913.092000
7553.60    3889.489000
7555.24    4115.797000
7556.88    4059.610000
7558.51    4073.766000
7560.15    4174.203000
7561.78    4252.322000
7563.42    4200.649000
7565.06    4172.082000
7566.69    4198.615000
7568.33    4039.469000
7569.96    4046.613000
7571.60    4066.338000
7573.24    4096.853000
7574.87    3999.873000
7576.51    4040.139000
7578.15    4086.921000
