#Wavelength     Flux    Sky Spectrum 
#[Angstrom]   [Counts]     [Counts]
4579.10     8.225163    -0.398416
4579.71    13.034883     0.029348
4580.31     9.416035     0.892736
4580.92     3.890549     1.068516
4581.53     4.045666     0.949460
4582.14     7.954714     1.063660
4582.74     8.966594     0.980529
4583.35     6.509228     0.068031
4583.96     5.441048     0.530187
4584.56     7.189187     1.249287
4585.17     7.583479     0.726224
4585.78     4.936978     0.003682
4586.39     5.462677     0.835461
4586.99     8.390005     1.095738
4587.60     8.169744     0.971284
4588.21     5.249680     0.994682
4588.81     5.111768     1.007325
4589.42     8.462925     1.072639
4590.03     9.881101     0.323139
4590.64    10.309997    -0.098640
4591.24     9.235886     0.012276
4591.85     5.754699     0.008790
4592.46     4.007282     0.712642
4593.06     5.079750     2.780519
4593.67     7.425306     1.792789
4594.28     9.787432    -0.428308
4594.89     9.712921     0.122339
4595.49     6.866327     0.990340
4596.10    11.145227     0.357310
4596.71     9.145642    -0.257545
4597.31     3.809714     0.406383
4597.92     4.090839     0.935912
4598.53     4.041429     0.012562
4599.14     3.774423     0.804122
4599.74     5.122177     0.694579
4600.35     6.112769     2.244210
4600.96     4.532721     3.710704
4601.56     2.959346     0.101210
4602.17     5.548041     0.578074
4602.78     4.822943     1.161922
4603.38     1.670800     1.057192
4603.99     3.052302     0.778921
4604.60     9.023051     0.002127
4605.21    10.366999     1.602829
4605.81     8.011231     2.439721
4606.42     6.665383     0.971813
4607.03     7.156631     0.100745
4607.63     6.935032     0.997099
4608.24     5.294485     0.702119
4608.85     4.052659     4.167400
4609.46     4.328944     3.712782
4610.06     3.053354     2.276295
4610.67     2.418030     3.955438
4611.28     7.750952     1.273498
4611.88     6.769336     0.069341
4612.49    10.982072    -0.208602
4613.10    10.699531     0.655116
4613.71     3.359563     2.140069
4614.31     5.875290     2.003928
4614.92     7.989190     2.091025
4615.53     7.285706     1.284242
4616.13     7.420582     1.299446
4616.74     7.788269     2.084488
4617.35     5.927319     2.009549
4617.96     5.681837     2.177421
4618.56     8.274495     0.388629
4619.17     8.634377     0.824640
4619.78     8.288826     2.020859
4620.38     8.820678     0.887752
4620.99     5.365462     0.926515
4621.60     3.102793     1.805153
4622.21     3.529254     2.026719
4622.81     3.985251     2.130140
4623.42     4.244064     1.723795
4624.03     6.952431     0.013432
4624.63    10.021436    -0.080527
4625.24     7.454113     0.034267
4625.85     6.189260     0.015759
4626.46     8.704265    -0.064543
4627.06     8.854221     0.058660
4627.67     6.214952     0.971932
4628.28     6.496885     0.331779
4628.88     7.435137    -0.105350
4629.49     8.771398    -0.016104
4630.10     8.398688     0.077878
4630.71     3.171700     0.952504
4631.31     2.449882     1.863784
4631.92     4.706034     2.058000
4632.53     4.074393     1.992409
4633.13     5.391756     1.977170
4633.74     9.944477     2.018084
4634.35     4.516115     2.139591
4634.95     6.063375     0.535624
4635.56     5.507038     0.069089
4636.17     4.978973     1.817914
4636.78     9.427648     2.990891
4637.38     8.195055     2.033600
4637.99     5.004292     2.066579
4638.60     7.544100     1.241209
4639.20     8.411313     1.508808
4639.81     7.351248     1.610637
4640.42    10.059385     0.016856
4641.03     9.090370     1.860083
4641.63     9.870847     0.775118
4642.24     8.841334    -0.362971
4642.85     8.628590     0.351288
4643.45    11.259965     1.089392
4644.06    11.028256     1.030230
4644.67    10.891303     0.124635
4645.28    11.304914     0.348789
4645.88     9.890162     1.804547
4646.49     7.414844     1.466806
4647.10     5.857658     0.075369
4647.70     4.780293     2.791414
4648.31     8.160965     1.855644
4648.92     7.992298     0.209609
4649.53     5.052950    -0.094917
4650.13     5.335581     0.133307
4650.74     6.998265     0.990944
4651.35     5.441364     1.068718
4651.95     4.818194     0.840265
4652.56     8.684359     1.549339
4653.17    10.696507     1.844405
4653.78     7.841136     0.954610
4654.38     8.828512     1.024906
4654.99     9.851275     0.255218
4655.60    10.197592    -0.125850
4656.20     9.422657     0.158709
4656.81     7.519122     1.549697
4657.42     7.046991     2.974807
4658.03     9.714997     0.370509
4658.63     9.431831     0.296452
4659.24     9.146957     1.843763
4659.85     8.077360     1.616679
4660.45     4.467775     1.154807
4661.06     2.986988     2.954321
4661.67     4.448597     2.379367
4662.28     6.275122     1.240678
4662.88     7.809855     0.937392
4663.49     9.553232     1.019717
4664.10     9.848722     0.993498
4664.70     7.900937     0.980813
4665.31    11.209541     1.129994
4665.92    10.376020     0.339368
4666.53     4.082239     0.245850
4667.13     2.739651     1.092693
4667.74     8.046457     1.000384
4668.35     7.078825     1.090016
4668.95     9.121781     0.180180
4669.56     9.140372     0.483357
4670.17     6.009175     0.842546
4670.77     6.450371    -0.075694
4671.38     9.916168     0.002516
4671.99     8.389763    -0.157915
4672.60     2.342233     1.218751
4673.20     2.544231     2.304345
4673.81     4.621789     1.727604
4674.42     3.330375     0.956608
4675.02     9.686029     0.968878
4675.63     7.612625     1.131161
4676.24     9.555485     0.356872
4676.85    12.008175     0.153738
4677.45     9.578590     1.321147
4678.06     8.962723     1.993900
4678.67     7.283876     1.160776
4679.27     6.197612     0.747630
4679.88     5.788907     1.775615
4680.49     6.560391     1.399040
4681.10     9.854985    -0.016040
4681.70    13.008205     0.991096
4682.31     9.691872     0.274332
4682.92     9.163382    -0.370602
4683.52    10.607731     1.086583
4684.13     8.954679     1.829868
4684.74     5.736207     1.061072
4685.35     6.708203     2.043138
4685.95    11.350363     0.140489
4686.56    10.687106     1.819923
4687.17     8.131477     2.597186
4687.77     8.067306     0.698363
4688.38     9.175552     1.046105
4688.99    11.054946     1.086480
4689.60     8.297731     0.137344
4690.20     5.639384     0.449477
4690.81     7.272612     1.180751
4691.42     8.850264     0.882051
4692.02     6.987954     1.036921
4692.63     8.640799     2.806145
4693.24     9.431908     2.632050
4693.85     7.940503     0.873167
4694.45     9.332598    -0.267964
4695.06    11.962677     0.202089
4695.67     9.047513     1.004473
4696.27     9.155689     0.061094
4696.88    13.741533     1.035648
4697.49    10.656363     2.979308
4698.10     9.814638     2.281427
4698.70    15.967011    -0.221702
4699.31     9.356819    -0.075599
4699.92     8.575856     0.997110
4700.52     8.823548     0.205439
4701.13     7.053335     0.787256
4701.74     7.792183     2.010848
4702.35     9.941792     0.924203
4702.95     7.929591     0.959581
4703.56    11.784090     1.112911
4704.17    12.770615     0.460272
4704.77     9.235291    -0.236476
4705.38     6.506464     0.315927
4705.99     6.018277     2.097739
4706.59     6.839684     3.085503
4707.20     7.418879     1.538633
4707.81     5.380440     0.914826
4708.42     6.476899     0.680978
4709.02    10.392158     0.005057
4709.63    11.029134     1.014826
4710.24    14.874715     1.989232
4710.84    11.405608     1.363110
4711.45     7.166598     0.857008
4712.06     7.365642     1.095269
4712.67     7.929109     0.890930
4713.27     6.082647     0.022398
4713.88     4.470479    -0.163145
4714.49     9.261364     0.843352
4715.09    10.100303     0.441249
4715.70     8.031359     0.418726
4716.31    10.189846     2.080191
4716.92    10.037395     1.110904
4717.52     9.940405     0.014715
4718.13     9.879733     0.598809
4718.74     7.113072     1.016133
4719.34     4.952583     1.226227
4719.95     5.985705     2.006122
4720.56     5.702003     1.138986
4721.17    11.241426     0.141895
4721.77    14.083727     0.003608
4722.38    11.294692    -0.168244
4722.99     8.698468     0.403598
4723.59     7.862442     2.026285
4724.20     5.647806     1.172139
4724.81    11.261171     0.742125
4725.42     7.746104     1.780216
4726.02     4.854956     1.434053
4726.63     9.173461    -0.196907
4727.24     5.958718     0.007648
4727.84     5.272404     0.698215
4728.45     2.775023     2.700448
4729.06     6.659681     2.065417
4729.67     9.630955     1.087015
4730.27     5.535442     2.030908
4730.88     6.912418     1.029337
4731.49    10.684032     0.114522
4732.09     9.509054    -0.124297
4732.70     6.631924     0.370886
4733.31     6.019092     1.379746
4733.92     5.847812     2.016800
4734.52     4.941056     1.970982
4735.13     7.462593     2.870899
4735.74     7.706690     2.566434
4736.34     6.561030     1.471244
4736.95     5.520347     0.873619
4737.56     5.191520     1.077985
4738.17     8.685081     1.959624
4738.77     9.672178     1.908671
4739.38     6.568415     2.744747
4739.99     7.751932     2.438518
4740.59    11.235126     0.598346
4741.20    11.180000    -0.012796
4741.81    15.086739    -0.013839
4742.41     9.374339     0.036667
4743.02     6.030262    -0.116575
4743.63     7.570534     0.369876
4744.24     8.097874     1.032174
4744.84     7.976377     1.013765
4745.45     6.922590     1.953264
4746.06     8.602325     1.326745
4746.66     8.161634     1.031551
4747.27     9.496071     0.575788
4747.88    13.136663     0.193052
4748.49    10.071085     1.985394
4749.09     7.199493     1.311040
4749.70     7.786567     0.276665
4750.31    10.909303    -0.279793
4750.91    11.534062     0.614031
4751.52    10.097637     2.020435
4752.13    12.851820     1.042239
4752.74    12.963529     1.043836
4753.34     7.647234     0.305745
4753.95     3.748067     0.294843
4754.56     6.551193     1.144892
4755.16     9.931058     0.964848
4755.77     6.236289     0.941750
4756.38     7.616014     1.826819
4756.99    11.825157     1.717708
4757.59    12.813732     0.179611
4758.20     8.247259     0.614061
4758.81     4.059395     3.010947
4759.41     8.633434     1.179315
4760.02     6.980579     1.694301
4760.63     6.518992     1.490378
4761.24     5.893750     1.285891
4761.84     4.373823     1.903614
4762.45     8.022033     1.002104
4763.06     7.640380     1.995455
4763.66    12.425676     0.622406
4764.27    12.884165     0.200142
4764.88     8.809370     1.335868
4765.49     7.983506     2.244853
4766.09     8.924328     3.036619
4766.70    12.146713     0.496504
4767.31    14.394661     0.158246
4767.91     8.494436     2.125227
4768.52     4.184371     3.028390
4769.13     8.235605     1.765054
4769.74     6.258903     0.074318
4770.34     5.065372    -0.041753
4770.95    10.383745    -0.138863
4771.56     9.997403     0.663915
4772.16     3.857008     2.448374
4772.77     2.951067     2.968915
4773.38     2.715317     2.076310
4773.99     6.752267     2.041541
4774.59     8.235693     1.448073
4775.20     5.782704     0.974031
4775.81     5.438745     0.844846
4776.41     9.074136    -0.005840
4777.02    10.264922     0.716436
4777.63     7.745816     2.078190
4778.23     7.342787     0.809085
4778.84     7.845253     0.527537
4779.45    10.081170     1.903571
4780.06    15.086040     0.020798
4780.66     5.319767     1.443800
4781.27     1.531973     2.974636
4781.88     4.955439     2.583169
4782.48     7.796875     1.902541
4783.09     9.055190     2.001902
4783.70     8.999874     1.975952
4784.31     9.554399     2.242707
4784.91    11.168706     0.604206
4785.52     9.441782     0.564945
4786.13     8.775805     2.208679
4786.73    13.090159     1.999102
4787.34    10.570976     2.111019
4787.95     8.456068     0.529673
4788.56    11.522217    -0.133357
4789.16    12.217608    -0.121244
4789.77     8.412308     0.321986
4790.38     8.000292     2.000122
4790.98     8.356428     1.093647
4791.59     5.721782     1.764181
4792.20     9.765556     1.233643
4792.81    14.322282    -0.311026
4793.41    13.217841     0.132126
4794.02    16.037519     0.969125
4794.63    11.858397     1.045824
4795.23    11.981590     0.957495
4795.84     9.020973     1.078357
4796.45     5.261472     0.826388
4797.06    10.307373    -0.070983
4797.66    11.035650    -0.170097
4798.27    11.175813     1.751864
4798.88     9.830755     0.952475
4799.48     9.153266     0.167090
4800.09    11.786840     0.949490
4800.70    12.964085    -0.002631
4801.31     7.549828     0.811642
4801.91     9.172814     1.132273
4802.52    11.877416     0.861942
4803.13    10.027053     1.287881
4803.73     7.828726     2.055087
4804.34     7.968294     2.001183
4804.95     8.586262     2.080121
4805.56    10.383300     1.393977
4806.16     7.414810     0.962967
4806.77     1.950913     2.885635
4807.38     2.167744     4.970963
4807.98     5.457741     2.359807
4808.59     9.138582     1.105415
4809.20    10.669904     0.549057
4809.81    11.452090    -0.347806
4810.41    10.191552     0.468502
4811.02     5.003849     2.998748
4811.63     4.363213     2.392446
4812.23     8.515026     0.635632
4812.84    10.196809    -0.519322
4813.45     8.334466     0.985623
4814.05     9.606201     2.932570
4814.66    14.057789     0.205963
4815.27     8.100151    -0.420810
4815.88     4.564300     1.383704
4816.48     8.423882     1.779556
4817.09    12.718430     0.934841
4817.70    11.831337     2.099051
4818.30     7.481450     3.948908
4818.91     7.090676     2.756852
4819.52     9.814651     1.389101
4820.13    13.534088     0.573167
4820.73    13.143571     0.086140
4821.34     7.068621     0.997025
4821.95    10.699100     0.151680
4822.55    13.194090     0.479365
4823.16    12.957441     1.257161
4823.77    12.897760     0.700469
4824.38    11.874495     0.010111
4824.98    10.205841     0.881407
4825.59     8.733136     1.195925
4826.20     6.475388     0.372382
4826.80     9.488749     0.105926
4827.41    12.416756     1.317061
4828.02     6.031375     2.008666
4828.63     8.207344     0.236935
4829.23     9.377192     0.543988
4829.84     8.904729     0.960372
4830.45     6.707388     1.474986
4831.05     4.128784     3.054527
4831.66     7.818400     2.151215
4832.27     5.992076     1.145660
4832.88     4.814612     0.948148
4833.48     7.270948     1.009197
4834.09     7.466375     1.010407
4834.70     6.024112     0.998739
4835.30    12.503225     0.894206
4835.91     8.827993     1.799312
4836.52     5.443192     1.567717
4837.13     7.511521     1.085701
4837.73     6.755461     2.110730
4838.34     4.987841     2.114340
4838.95     7.054422     0.809806
4839.55     9.280808     3.013492
4840.16    10.599711     3.048090
4840.77     9.048191     1.156649
4841.38     6.021660     4.020117
4841.98    12.070192     3.469705
4842.59    11.884204     1.364463
4843.20     8.261033     1.407513
4843.80     6.424911     1.877008
4844.41     6.164160     0.948322
4845.02     8.754910     1.024872
4845.63     9.985240     0.248462
4846.23     9.865523    -0.074152
4846.84    10.412928    -0.049323
4847.45     9.222399     0.146012
4848.05     6.000158     1.000178
4848.66     9.504248     1.008207
4849.27     8.414367     1.128639
4849.87     6.684985     0.428042
4850.48     8.916944     0.252416
4851.09     8.533009     2.220888
4851.70     3.759980     3.161433
4852.30    11.429362     0.550607
4852.91     9.112017     0.871488
4853.52     8.323948     2.004559
4854.12    13.454632     0.825843
4854.73     6.028003     0.979110
4855.34    13.129138     1.908978
4855.95    15.208147     1.578424
4856.55    14.107811     0.367247
4857.16    14.871314     0.138579
4857.77    12.852394     1.042135
4858.37    11.225044     1.051430
4858.98    10.323579     0.847960
4859.59    13.645630     1.602894
4860.20    13.695552     1.837993
4860.80     8.516325     0.883832
4861.41     8.060226     0.948773
4862.02     6.535743     1.905817
4862.62    10.832288     1.502611
4863.23     9.308006     0.836142
4863.84     7.445963     1.086548
4864.45    17.079433     0.983084
4865.05    12.960443     0.033887
4865.66    12.436741     0.695038
4866.27    11.680058     0.706844
4866.87    10.373353    -0.198906
4867.48    13.144897     0.085432
4868.09    11.477224     0.950735
4868.70     7.154302     0.932841
4869.30     5.314212     1.586499
4869.91     6.984049     1.867445
4870.52     9.320707     0.794988
4871.12     9.095846     0.020844
4871.73     5.728873    -0.132347
4872.34     4.791103     0.667506
4872.95     8.003016     0.969779
4873.55    11.714881     1.261244
4874.16    11.941965     3.069389
4874.77     9.419024     4.141284
4875.37     8.514944     2.130609
4875.98    10.167677     0.127090
4876.59    10.749462     0.212570
4877.20     8.818327     1.066774
4877.80     8.032139     1.070879
4878.41     7.928239     0.251591
4879.02     8.343233    -0.139579
4879.62     9.650368     0.193788
4880.23     9.681959     1.287584
4880.84     7.943536     2.943977
4881.45    11.382063     3.161115
4882.05    10.644745     2.445657
4882.66     8.495982     1.611120
4883.27     9.197315     0.781873
4883.87    10.016166    -0.007854
4884.48    11.609988    -0.127889
4885.09    13.032293     0.758868
4885.69    12.044650     0.732283
4886.30     9.040792    -0.261851
4886.91     8.133957     0.123637
4887.52    12.248386     1.953194
4888.12    15.427039     0.638964
4888.73    12.334291     0.117230
4889.34    12.575313     1.487194
4889.94    15.520645     1.976187
4890.55     7.431320     1.121422
4891.16     9.495640     0.083689
4891.77    11.368123     0.428606
4892.37    11.654871     1.258385
4892.98    12.839890     0.765655
4893.59    10.105413    -0.038981
4894.19     8.664139     2.315851
4894.80     5.366047     3.547559
4895.41     7.322368     2.036362
4896.02    12.587135     1.099883
4896.62     9.970339     1.997843
4897.23     5.293087     0.307646
4897.84     7.136530     0.310272
4898.44     9.878306     1.676643
4899.05     8.138388     1.859696
4899.66     7.151716     0.966698
4900.27    13.027090     0.925271
4900.87    14.838260     1.527128
4901.48     8.741985     2.794226
4902.09     7.204575     2.487526
4902.69    13.219560     1.012091
4903.30     9.823605     2.757434
4903.91     5.735484     3.301091
4904.52     9.031822     2.349535
4905.12    12.194379     2.147148
4905.73    11.088299     3.120803
4906.34    13.767294     3.127360
4906.94    14.292475     1.333892
4907.55    13.492406     1.483099
4908.16    12.529178     1.771152
4908.77    10.548644     1.027890
4909.37     8.090255     1.965632
4909.98     8.358735     1.443038
4910.59    10.847581     0.079086
4911.19    12.190017     0.699686
4911.80     8.810152     3.647512
4912.41     4.911558     5.052248
4913.02    12.762848     1.761044
4913.62    16.545906     1.050636
4914.23    12.806730     2.745284
4914.84     9.753609     2.755662
4915.44    10.982694     1.014321
4916.05    10.995749     0.690058
4916.66     4.981158     2.485181
4917.27     4.365422     2.464889
4917.87    10.182540     0.704307
4918.48    12.009412     1.016578
4919.09    12.716290     2.097190
4919.69    13.879723     0.517088
4920.30    10.012664     0.757431
4920.91     7.558373     1.854175
4921.51    12.045543    -0.040468
4922.12    10.085337    -0.047737
4922.73    13.367260    -0.184975
4923.34    17.567863     0.909211
4923.94    14.027493     2.006182
4924.55     9.048618     0.957051
4925.16    14.465504     0.873309
4925.76    11.430374     1.706438
4926.37     5.151368     2.070101
4926.98     6.277497     2.027338
4927.59    11.135614     1.970314
4928.19    10.273045     1.132354
4928.80    10.258971     0.852413
4929.41    11.891518     1.353222
4930.01     9.306548     2.363260
4930.62     3.864766     2.986464
4931.23     5.603502     2.138254
4931.84     6.389649     1.891514
4932.44     9.568063     2.096617
4933.05    16.003487     1.837960
4933.66    18.956959     0.918843
4934.26    15.620487     0.017157
4934.87    13.579470     0.605022
4935.48    11.731073     1.201809
4936.09    11.534805     0.785747
4936.69    15.269740    -0.057544
4937.30    15.973786    -0.215794
4937.91     7.291746     1.659209
4938.51     7.311209     1.095845
4939.12    12.463640     0.249285
4939.73     9.885166     2.043011
4940.34    10.034027     1.184495
4940.94     8.853825     0.942141
4941.55    10.964817     0.814266
4942.16    10.601443     1.512276
4942.76     8.377756     2.995677
4943.37    20.811869     1.344167
4943.98    17.024281     0.632709
4944.59    12.261720     1.700590
4945.19    13.945239     1.640109
4945.80    11.969919    -0.030144
4946.41    13.488715     0.691184
4947.01    14.908184     1.880959
4947.62    11.412797     1.664293
4948.23     9.469501     0.861695
4948.84    13.021461     1.012889
4949.44    11.093185     1.765065
4950.05    13.162108     2.790219
4950.66     9.136728     2.768034
4951.26     4.368061     1.733121
4951.87    11.016463     0.998292
4952.48    10.667778     0.892363
4953.09     9.039315     1.591336
4953.69     9.232282     2.207410
4954.30    12.073605     1.790123
4954.91    15.043966     1.000455
4955.51     8.766453     1.751245
4956.12     5.741513     2.188333
4956.73     8.767446     1.703876
4957.33    12.680814     0.795633
4957.94    13.166397     0.893493
4958.55     8.925920     3.745224
4959.16    13.656748     2.116503
4959.76    16.241966    -0.680145
4960.37    11.711021     0.324095
4960.98    13.804454     1.958644
4961.58    13.856604     1.328860
4962.19    10.952625     0.904710
4962.80    10.551552     0.926124
4963.41    14.630034     1.126478
4964.01    17.219584     2.061491
4964.62    12.545425     0.392273
4965.23    11.395755     0.809846
4965.83    13.176233     2.071930
4966.44    13.131722     0.886188
4967.05    15.751960     0.085075
4967.66    15.129694    -0.203864
4968.26    12.590059     0.641507
4968.87    10.297645     0.695529
4969.48     7.889353     0.058877
4970.08     7.710288     2.726197
4970.69    16.914091     1.846022
4971.30    15.010709     1.205441
4971.91     6.263970     1.926040
4972.51    10.958658     1.000239
4973.12    13.881204     1.901958
4973.73    13.428059     1.276843
4974.33    10.041264     1.663904
4974.94     6.658840     2.988013
4975.55     7.803071     1.999341
4976.16    11.702073     3.035315
4976.76    14.722485     1.308306
4977.37    11.876307     0.258633
4977.98     8.069424     2.132973
4978.58    12.516665     1.971909
4979.19    13.861206     2.906465
4979.80    15.311052     2.071985
4980.41    17.408169     0.995050
4981.01    15.696080     2.064424
4981.62    11.381010     2.096122
4982.23    11.721327     1.439703
4982.83    10.800817     0.394153
4983.44    10.974529     0.121931
4984.05    16.021000     1.005051
4984.66    14.009174     0.997315
4985.26    10.980991     1.420329
4985.87     9.244498     2.593911
4986.48    10.942612     2.852564
4987.08    15.918005     1.122874
4987.69    13.203191    -0.145000
4988.30    11.608982     1.223352
4988.91    11.787035     1.665808
4989.51    12.388497    -0.152601
4990.12    17.376608    -0.098498
4990.73    19.562647     0.652700
4991.33    17.080595     1.524482
4991.94    14.675239     2.113880
4992.55    15.000296     1.977178
4993.15    14.210704     1.221789
4993.76    13.270546     0.474215
4994.37     9.688599     2.533297
4994.98     8.776806     3.600559
4995.58    13.943456     0.073384
4996.19    11.035533     0.575302
4996.80    10.414281     1.083956
4997.40    12.713579     1.306453
4998.01    11.541155     1.983769
4998.62     8.138451     1.098805
4999.23    10.374895     0.890899
4999.83    17.698030     1.104316
5000.44    20.778795     0.846717
5001.05    14.569131     1.073401
5001.65     8.168399     2.905303
5002.26    11.873179     1.780504
5002.87    16.258585     1.157568
5003.48    14.204220     2.041908
5004.08    11.954777     1.064443
5004.69    15.297842     0.008656
5005.30    14.958459     0.761829
5005.90    14.769256     2.918097
5006.51    16.934772     3.949400
5007.12    13.515339     2.273962
5007.73    12.142536     1.097664
5008.33    15.129194     1.083012
5008.94    16.899326     0.756742
5009.55    17.083796     0.001259
5010.15    23.415470     0.820195
5010.76    20.621349     0.977718
5011.37    18.505119     1.381653
5011.98    20.867447     1.964907
5012.58    15.622869     1.067412
5013.19     9.933237     0.894165
5013.80     9.490769     1.246287
5014.40    13.800202     2.757243
5015.01    17.009706     3.936775
5015.62    14.519173     1.427973
5016.23    13.877339     0.791840
5016.83    16.765852     0.878023
5017.44    19.272341     1.359528
5018.05    19.017076     2.997400
5018.65    18.630186     1.476128
5019.26    15.399939     1.212204
5019.87    12.206861     2.341204
5020.48    13.335032     1.823445
5021.08    16.726282     0.070000
5021.69    15.852856     1.141129
5022.30    11.425827     2.448695
5022.90    10.688960     1.594830
5023.51    15.924760     0.015408
5024.12    18.340351    -0.066023
5024.73    21.103979    -0.057103
5025.33    18.689772     0.278575
5025.94    12.664308     1.061211
5026.55    14.545387     1.037750
5027.15    16.156137     0.887806
5027.76    15.310825     1.390119
5028.37    13.460360     2.179384
5028.97    12.995524     2.002968
5029.58    16.152409     0.387055
5030.19    17.685650    -0.274845
5030.80    16.004421     0.334308
5031.40    13.805056     1.078644
5032.01    15.227624     1.097060
5032.62    22.016678     0.150973
5033.22    19.730024     0.440860
5033.83    13.089942     0.902035
5034.44    13.998016     0.001040
5035.05    13.184298     0.599280
5035.65    13.778147     1.919945
5036.26    15.820569     1.412409
5036.87    18.506456    -0.060834
5037.47    21.889914     0.803601
5038.08    19.558281     1.775170
5038.69    13.803892     2.143616
5039.30    16.341187     1.827175
5039.90    25.002022     1.011570
5040.51    15.956944     0.822945
5041.12    11.803618     1.706158
5041.72    12.775908     1.734616
5042.33    10.929070     1.015295
5042.94    12.500916     1.903553
5043.55    15.228237     1.588016
5044.15    16.246933     0.337475
5044.76    17.716915     0.151810
5045.37    20.941719     0.999455
5045.97    19.773682     0.183302
5046.58    18.191469     0.430689
5047.19    17.941273     1.033425
5047.80    16.821037     1.059055
5048.40    14.809305     2.056133
5049.01    17.957441     0.595862
5049.62    17.569721     0.550327
5050.22    15.305603     2.081258
5050.83    18.978214     1.098817
5051.44    14.840555     1.105722
5052.05    12.721070     4.393742
5052.65    14.253277     5.567913
5053.26    13.999200     2.985438
5053.87    14.691481     4.694387
5054.47    15.390208     3.792937
5055.08    11.419672     0.876252
5055.69     8.315644     0.046912
5056.30    15.102974     0.944760
5056.90    17.119684     0.443171
5057.51    14.130633    -0.235568
5058.12    11.631174     0.199237
5058.72    13.765194     0.984094
5059.33    20.627485     1.414005
5059.94    16.255163     4.067236
5060.54    10.327593     4.189924
5061.15    13.152058     0.905281
5061.76    13.109896     1.822888
5062.37    13.260911     1.305799
5062.97    11.852018     1.683089
5063.58    10.000916     2.939574
5064.19    12.550216     1.155021
5064.79    16.044462     0.999210
5065.40    17.469433     0.378320
5066.01    16.629696     0.388632
5066.62    15.986811     2.003403
5067.22    17.289129     0.231178
5067.83    14.370193     1.414277
5068.44    14.121225     3.182862
5069.04    18.050304     1.881276
5069.65    14.783672     1.062250
5070.26    13.511383     0.970191
5070.87    17.221409     0.986483
5071.47    18.478672     1.033356
5072.08    12.540907     1.061362
5072.69    11.631313     0.192753
5073.29    15.567267     0.319009
5073.90    20.145960     1.132332
5074.51    20.135555     1.009033
5075.12    11.294407     0.832439
5075.72     8.622943     1.731848
5076.33    14.715569     1.598564
5076.94    20.133862    -0.068263
5077.54    19.754610    -0.096660
5078.15    23.038979     0.108194
5078.76    22.086044    -0.162934
5079.37    16.615341     0.174681
5079.97    16.405529     1.810519
5080.58    10.711948     2.280122
5081.19    10.616169     1.466182
5081.79    15.711427     1.053388
5082.40    16.821980     1.939523
5083.01    21.637949     2.331155
5083.62    22.736143     0.820085
5084.22    18.366295     0.223386
5084.83    16.032278     2.024946
5085.44    21.301743     2.242801
5086.04    25.212782     1.239128
5086.65    23.947283     1.288764
5087.26    19.511677     1.975526
5087.87    14.206229     1.050840
5088.47     9.072216     1.728452
5089.08    11.721584     1.445615
5089.69    15.789916    -0.146542
5090.29    12.553796    -0.028018
5090.90    22.211792    -0.095991
5091.51    21.341331     0.505900
5092.12    11.929597     0.897171
5092.72    14.752704     0.016150
5093.33    16.448593     0.635282
5093.94    14.445664     1.375987
5094.54    12.842273     2.563786
5095.15    12.993762     4.000745
5095.76    12.278850     2.614279
5096.36    16.882462     1.203093
5096.97    15.462979     3.452443
5097.58     6.685727     5.920832
5098.19    10.020975     1.836499
5098.79    18.037851     0.615918
5099.40    16.271477     0.746555
5100.01    11.210599     0.033372
5100.61    18.893719     0.967003
5101.22    20.432676     0.213374
5101.83    18.055065     0.680760
5102.44    19.802612     2.057320
5103.04    23.120785     1.106164
5103.65    18.107857     0.824668
5104.26    15.931468     1.328135
5104.86    16.641848     2.330680
5105.47    13.146215     3.030569
5106.08    12.096133     1.476940
5106.69    11.409515     1.112363
5107.29    11.192410     2.439966
5107.90    11.999476     2.998802
5108.51    12.342841     1.589549
5109.11    21.049812     0.024006
5109.72    23.396574     0.530724
5110.33    13.628555     2.017333
5110.94    12.551296     1.179885
5111.54    13.587883     1.361337
5112.15    14.729443     2.312211
5112.76    18.553921     1.850321
5113.36    23.566648     0.147252
5113.97    22.277006     0.772387
5114.58    15.533270     3.144751
5115.19    12.202985     3.841519
5115.79    16.622274     1.383795
5116.40    14.997132     0.092699
5117.01    11.959061     0.010928
5117.61    10.525539     1.557032
5118.22     7.301963     4.779025
5118.83     7.599214     4.706534
5119.44    18.468576     3.240071
5120.04    24.055904     1.449014
5120.65    13.457149    -0.065206
5121.26    16.401451     2.385360
5121.86    19.636814     2.108482
5122.47    15.745000     1.409603
5123.08    12.996177     3.981900
5123.69    15.955160     1.821180
5124.29    21.501272     1.204672
5124.90    22.220200     1.910985
5125.51    17.046263     0.999593
5126.11    15.925908     1.945599
5126.72    20.275898     0.928761
5127.33    16.742893     0.219830
5127.94     5.917390     2.025705
5128.54    10.122608     2.114977
5129.15    13.134060     1.985947
5129.76    13.696418     1.876452
5130.36    16.029844     0.930883
5130.97    14.536961    -0.125766
5131.58    13.694946     1.545245
5132.18    16.667118     3.469728
5132.79    18.877058     2.887295
5133.40    13.535208     1.244361
5134.01     9.150848     1.149840
5134.61     9.956482     2.878823
5135.22    12.005543     3.961312
5135.83    11.404665     2.340125
5136.43    17.336109     1.723798
5137.04    21.855095     2.227363
5137.65    18.329659     1.848086
5138.26    12.782888     0.798018
5138.86    11.321788     3.299572
5139.47    15.684898     2.769524
5140.08    20.227961     0.008315
5140.68    19.778130     2.674367
5141.29    22.661268     2.068521
5141.90    17.450382     0.737668
5142.51     8.608240     0.965652
5143.11    13.102449     0.782981
5143.72    15.431828     3.180113
5144.33    17.725733     3.420278
5144.93    19.841736     0.582680
5145.54    16.385723    -0.193591
5146.15    16.377394     2.010995
5146.76    16.828636     3.174814
5147.36    15.971136     3.130071
5147.97    16.137415     4.073106
5148.58    14.073948     2.114001
5149.18    12.611574     0.649128
5149.79    13.128200     1.051136
5150.40    14.561646     0.999868
5151.01    18.502563     1.118074
5151.61    20.241869     0.550168
5152.22    17.127188     0.040403
5152.83    13.841480     0.899972
5153.43    18.290159     1.087619
5154.04    19.004400     0.993788
5154.65    17.462646     0.967106
5155.26    21.971535     0.926231
5155.86    18.041964     1.807624
5156.47    23.348682     1.632158
5157.08    30.559334     1.045982
5157.68    19.331562     1.938798
5158.29    16.892109     1.509065
5158.90    17.847050     0.592115
5159.51    17.187668    -0.180628
5160.11    17.649736    -0.297361
5160.72     9.617896     3.011717
5161.33     8.623201     3.227334
5161.93    12.932996     0.859832
5162.54     9.716234     2.557197
5163.15    17.117346     4.891414
5163.76    17.891932     4.005335
5164.36    10.376430     1.843983
5164.97    13.051931     2.054362
5165.58    17.532518     0.714910
5166.18    13.764712     0.002497
5166.79    10.604557     1.211830
5167.40    19.865938     2.016894
5168.00    20.369993     1.352033
5168.61    19.740160     1.092941
5169.22    21.919304     2.193408
5169.83    17.929039     3.065526
5170.43    14.979877     1.824458
5171.04    18.633955     0.755128
5171.65    23.055407     1.039822
5172.25    19.088696     1.063884
5172.86    15.776677     0.748787
5173.47    17.145538     1.671971
5174.08    18.938597     3.040509
5174.68    17.515118     2.272439
5175.29    22.788433     1.387319
5175.90    23.468256     0.678477
5176.50    17.884865     1.166724
5177.11    20.677555     3.784002
5177.72    18.097471     2.599126
5178.33    14.327667     0.595682
5178.93    15.005349     1.030011
5179.54    14.085618     1.106507
5180.15    14.789632     0.712558
5180.75    14.200278     1.608751
5181.36    10.938513     2.998808
5181.97    12.839399     1.522809
5182.58    26.507290     0.656880
5183.18    29.717188     1.265491
5183.79    17.020739     1.997891
5184.40    21.086359     2.179635
5185.00    21.746586     1.362933
5185.61    17.194792     1.180279
5186.22    17.023819     2.916889
5186.83    15.690839     4.804343
5187.43    18.634199     4.360094
5188.04    22.422918     2.590666
5188.65    19.455383     1.987208
5189.25    12.986657     2.632075
5189.86    13.960340     3.312226
5190.47    16.788185     2.677820
5191.08    13.125296     1.090029
5191.68    14.799250     1.660170
5192.29     8.975826     5.215835
5192.90     3.591932     6.695078
5193.50    13.849127     2.544314
5194.11    14.433937     1.282526
5194.72    10.787684     2.942018
5195.33    12.577051     4.007554
5195.93    17.283142     3.162081
5196.54    18.921474     2.883547
5197.15    16.646778     3.023845
5197.75    16.365440     3.008135
5198.36    21.670218     3.067157
5198.97    18.216469     2.661107
5199.58    12.609388     3.831006
5200.18    14.218049     4.924629
5200.79    19.930315     1.633713
5201.40    26.411068     1.673811
5202.00    24.914589     3.158024
5202.61    15.990935     1.997989
5203.22    13.799378     1.049121
5203.82    14.094437     1.328567
5204.43    14.016173     2.289087
5205.04    14.019906     2.981245
5205.65    13.291961     3.050152
5206.25    12.917850     2.963535
5206.86    14.734731     3.029279
5207.47    17.848097     3.030913
5208.07    17.715206     2.444120
5208.68    19.725000     1.511082
5209.29    20.368330     2.484914
5209.90    15.138451     5.074770
5210.50    19.325981     1.833234
5211.11    21.554291     0.108070
5211.72    17.764647     2.108430
5212.32    19.244514     1.268585
5212.93    21.993233     0.792396
5213.54    20.866169     1.152452
5214.15    19.101030     2.100387
5214.75    22.885649     3.903417
5215.36    19.254675     2.783884
5215.97    16.392529     0.287809
5216.57    19.997824    -0.009964
5217.18    17.027391     1.786320
5217.79    21.180439     1.064117
5218.40    26.022137     0.162046
5219.00    21.286385     1.927323
5219.61    20.708578     1.467599
5220.22    20.311756     0.846478
5220.82    18.954718     0.993293
5221.43    19.202793     0.936366
5222.04    16.498669     1.754559
5222.65    17.409647     1.796218
5223.25    17.153309     2.277987
5223.86     8.340404     4.891980
5224.47    15.349922     3.006513
5225.07    25.889292     0.344700
5225.68    22.432220     1.098750
5226.29    10.928990     2.780132
5226.90    10.310309     2.645088
5227.50    14.850347     1.862850
5228.11    14.028082     1.996713
5228.72    13.619503     2.002876
5229.32    15.100717     2.060266
5229.93    15.929729     1.883763
5230.54    15.791405     1.092077
5231.15    19.654844     0.270087
5231.75    20.602417    -0.168048
5232.36    17.512007     0.117021
5232.97    16.706066     0.915402
5233.57    19.532677     0.990600
5234.18    21.239710     1.235562
5234.79    19.843203     2.066897
5235.40    18.333204     2.234525
5236.00    17.000406     0.970544
5236.61    13.050631     1.940604
5237.22     8.999688     5.002097
5237.82    12.896363     3.834107
5238.43    17.665331     2.108338
5239.04    19.083717     2.164384
5239.64    17.326015     2.962511
5240.25    13.362901     2.963938
5240.86    14.985563     3.302607
5241.47    17.878492     2.607871
5242.07    13.674201     0.089138
5242.68    12.632271     1.723919
5243.29    15.562178     3.037991
5243.89    20.537289     1.966372
5244.50    24.275776     2.705422
5245.11    14.224399     3.322890
5245.72    10.752037     2.573052
5246.32    21.938023     1.014755
5246.93    19.550669     0.054382
5247.54    14.551500     0.309313
5248.14    14.140869     1.235647
5248.75    15.733187     1.946284
5249.36    17.736900     2.171669
5249.97    14.086264     1.584433
5250.57    10.030889     0.978927
5251.18    15.428561     1.083457
5251.79    21.567902     0.219113
5252.39    22.713814     0.443920
5253.00    18.725859     2.048834
5253.61    14.165340     2.094679
5254.22    16.421030     2.012480
5254.82    16.932932     1.880958
5255.43    11.144323     1.934361
5256.04    12.838020     3.732388
5256.64    13.720646     3.054301
5257.25    13.399281     0.677659
5257.86    17.461855     0.776616
5258.47    18.629181     2.438362
5259.07    17.362373     2.886245
5259.68    15.841769     1.935933
5260.29    14.765876     1.884103
5260.89    17.005169     2.274579
5261.50    19.541889     1.485759
5262.11    19.032236     0.008916
5262.72    17.271795     0.653773
5263.32    17.295631     1.064350
5263.93    14.607233     1.112113
5264.54     7.487488     1.928716
5265.14     8.494140     2.017035
5265.75    12.960438     2.159124
5266.36    15.158584     1.848974
5266.97    15.879122     0.157764
5267.57    16.315714     0.818155
5268.18    15.387782     2.467590
5268.79    14.997568     2.999647
5269.39    19.585899     3.185146
5270.00    21.086300     2.219836
5270.61    16.429733     0.648130
5271.22    12.675920    -0.022234
5271.82    20.025759     0.664855
5272.43    21.960796     1.010541
5273.04    16.703833     1.079512
5273.64    18.976540     1.966609
5274.25    21.875961     1.342603
5274.86    19.088352     1.339269
5275.46    12.997944     3.000591
5276.07    12.168547     3.213873
5276.68    14.974521     2.575382
5277.29    19.080835     1.797960
5277.89    21.253029     1.068158
5278.50    16.584251     1.071055
5279.11    16.212124     3.720416
5279.71    20.129009     5.973274
5280.32    18.263935     3.543085
5280.93    19.227684     3.065669
5281.54    16.930698     4.421383
5282.14    11.008467     4.995179
5282.75    15.579200     5.118488
5283.36    15.430846     4.596005
5283.96    13.559298     3.868579
5284.57    19.490673     3.185016
5285.18    18.407187     1.588380
5285.79    14.675303     1.047016
5286.39    15.236469     2.102936
5287.00    18.509357     2.899158
5287.61    18.081253     3.027425
5288.21    12.970296     3.044626
5288.82     8.981923     3.023161
5289.43    13.705808     2.218065
5290.04    20.796654     2.095747
5290.64    24.286831     1.770703
5291.25    22.803782     0.137497
5291.86    17.738384     0.706261
5292.46    16.379358     3.069831
5293.07    17.946585     3.944306
5293.68    14.541272     1.490396
5294.29    15.712371     1.640025
5294.89    17.967873     3.213938
5295.50    16.821659     3.001025
5296.11    21.521549     3.600312
5296.71    21.667044     4.185924
5297.32    17.891216     3.932218
5297.93    20.441036     3.224499
5298.54    20.549534     2.296573
5299.14    18.195229     2.054711
5299.75    16.032907     2.010905
5300.36    13.619241     0.424080
5300.96    17.047451     0.186556
5301.57    22.904606     1.148246
5302.18    23.383776     1.773558
5302.79    20.171061     3.647333
5303.39    19.253431     3.226424
5304.00    21.062799     0.935890
5304.61    20.007263     1.649028
5305.21    16.232227     2.140645
5305.82    13.683837     2.047709
5306.43    15.628130     2.068820
5307.04    19.939188     0.895322
5307.64    17.196215     2.277774
5308.25    13.158340     3.889270
5308.86    18.382526     1.296662
5309.46    16.229649     2.344774
5310.07    12.667006     4.267939
5310.68    14.008756     3.033513
5311.28    13.230008     1.503606
5311.89    25.606525     0.400726
5312.50    34.278770    -0.002491
5313.11    19.357338     0.723390
5313.71    14.749907     2.503150
5314.32    20.956282     2.673988
5314.93    25.021835     0.935695
5315.53    22.300303     0.551659
5316.14    19.691696     2.569939
5316.75    20.488300     4.074115
5317.36    21.292036     3.102446
5317.96    16.356972     2.936517
5318.57    13.655418     2.807658
5319.18    16.306896     1.898459
5319.78    19.124540     1.087169
5320.39    22.482494     1.087327
5321.00    26.106901     0.722970
5321.61    28.010054    -0.022277
5322.21    26.214907     1.323337
5322.82    24.062578     2.232146
5323.43    24.177418     1.979946
5324.03    24.675606     2.592320
5324.64    19.839073     4.655324
5325.25    21.526869     4.207690
5325.86    29.953121     1.041543
5326.46    24.412123     0.952702
5327.07    18.693054     0.285781
5327.68    16.188581     0.434211
5328.28    11.977702     3.750937
5328.89    15.899884     2.493271
5329.50    16.863920     0.877779
5330.11    13.019197     2.010729
5330.71    19.086903     1.857620
5331.32    20.353765     3.044935
5331.93    16.378723     3.847607
5332.53    15.294012     2.130651
5333.14    12.486049     2.624643
5333.75    13.410560     2.576426
5334.36    18.158255     0.953287
5334.96    18.481585     0.976887
5335.57    17.343416     0.565472
5336.18    18.781096    -0.037431
5336.78    21.891264     0.792184
5337.39    20.818560     2.539500
5338.00    23.185236     2.770017
5338.61    26.934879     2.002318
5339.21    21.639261     2.825489
5339.82    19.152678     2.679701
5340.43    20.139744     1.832193
5341.03    19.968859     1.935696
5341.64    21.097530     2.718172
5342.25    22.766209     3.029112
5342.86    22.881762     3.036006
5343.46    20.678310     3.774153
5344.07    18.734093     4.275161
5344.68    15.755376     3.658740
5345.28    11.291560     2.127527
5345.89    10.253032     1.084583
5346.50    15.491603     1.253928
5347.10    19.993109     2.083422
5347.71    17.448357     2.213103
5348.32    24.227764     1.101072
5348.93    26.302633     1.581738
5349.53    15.474135     3.929498
5350.14    16.722935     3.026498
5350.75    22.679520     1.163864
5351.35    21.171646     1.130424
5351.96    12.419663     2.708469
5352.57    11.696732     2.910010
5353.18    14.231907     1.393735
5353.78    13.870697     0.022287
5354.39    17.945456     0.606286
5355.00    17.614706     1.077188
5355.60    13.813497     1.046083
5356.21    15.974369     1.809113
5356.82    19.146488     2.202888
5357.43    17.854841     1.781726
5358.03    14.920926     1.037104
5358.64    20.173717     0.825028
5359.25    24.208080     1.393370
5359.85    22.684805     2.042196
5360.46    20.451700     2.013515
5361.07    19.402779     2.084095
5361.68    20.786085     1.794556
5362.28    23.822556     1.029078
5362.89    24.905012     1.007137
5363.50    21.741611     0.799285
5364.10    16.397844     1.182261
5364.71    14.334592     2.943532
5365.32    19.251965     1.722473
5365.93    23.513067     1.590896
5366.53    20.435402     4.847313
5367.14    15.947180     4.383160
5367.75    21.971582     1.398356
5368.35    30.124052     0.061203
5368.96    23.909721     1.787730
5369.57    20.881979     1.045148
5370.18    20.192680     0.110642
5370.78    15.402317     1.858948
5371.39    13.323110     2.584247
5372.00    15.700660     3.902391
5372.60    20.459129     4.942743
5373.21    24.306704     2.739764
5373.82    25.403015     1.124246
5374.43    22.898024     1.048906
5375.03    18.418388     1.817327
5375.64    17.268829     3.655801
5376.25    24.906252     3.368993
5376.85    31.959734     0.834349
5377.46    24.429182    -0.227588
5378.07    21.330059     1.290790
5378.68    23.059034     3.426475
5379.28    20.512630     4.017897
5379.89    17.723923     3.542048
5380.50    19.677774     2.485632
5381.10    23.004261     2.020297
5381.71    19.182329     3.369983
5382.32    13.969677     4.835857
5382.92    15.191723     4.807540
5383.53    22.295765     3.269128
5384.14    22.105059     2.172438
5384.75    19.221601     2.046561
5385.35    20.021790     1.993930
5385.96    22.076374     1.094837
5386.57    20.405319     1.504962
5387.17    20.939022     1.850857
5387.78    28.228031     0.218868
5388.39    26.654011     0.271671
5389.00    19.409760     1.349372
5389.60    16.933956     1.981399
5390.21    21.849514     2.698674
5390.82    21.084995     3.330663
5391.42    14.048876     4.178149
5392.03    11.483295     5.085880
5392.64    16.070549     3.672211
5393.25    23.190634     1.322474
5393.85    25.250372     0.903874
5394.46    18.525124     3.171371
5395.07    16.360029     3.910809
5395.67    18.996391     2.973446
5396.28    15.850304     3.228189
5396.89    15.187342     1.404878
5397.50    17.709297     0.008646
5398.10    19.009890     1.759672
5398.71    18.420845     2.975671
5399.32    20.795380     2.735473
5399.92    24.001366     1.971199
5400.53    21.419533     1.879416
5401.14    22.583115     2.352254
5401.75    21.675287     3.242878
5402.35    14.215343     4.004472
5402.96    19.699249     3.383046
5403.57    23.887527     3.068101
5404.17    20.995380     3.003375
5404.78    28.038054     0.784812
5405.39    31.756197    -0.258458
5406.00    25.399874    -0.023504
5406.60    16.232906    -0.211119
5407.21    14.906317     1.642575
5407.82    15.716579     3.243430
5408.42    13.983220     2.999339
5409.03    17.450020     3.330361
5409.64    25.385883     1.787715
5410.25    27.438910     0.004310
5410.85    17.704153     1.650568
5411.46    18.297249     1.546204
5412.07    23.551437     1.255601
5412.67    20.552309     2.926284
5413.28    17.566635     1.981903
5413.89    16.968786     0.611639
5414.50    16.974237     1.040631
5415.10    15.582464     2.406724
5415.71    14.525828     3.870378
5416.32    16.965984     3.724525
5416.92    21.734921     1.436014
5417.53    19.752832     0.058526
5418.14    18.438364     0.166416
5418.74    20.076420     0.969544
5419.35    14.503397     1.751404
5419.96    14.729609     2.170074
5420.57    19.104736     1.913129
5421.17    16.366636     1.119926
5421.78    18.169434     1.061762
5422.39    21.321020     0.752955
5422.99    19.313917    -0.027520
5423.60    17.285635     1.217064
5424.21    17.266947     2.223107
5424.82    19.134037     1.993431
5425.42    21.147730     2.069302
5426.03    19.028370     1.559682
5426.64    15.506306     0.944939
5427.24    16.897392     1.017667
5427.85    24.045977     0.752264
5428.46    24.255318     1.594906
5429.07    17.090412     2.999272
5429.67    19.268160     1.663895
5430.28    17.811022     0.877403
5430.89    16.828802     0.910729
5431.49    29.190510    -0.071097
5432.10    33.108635     1.417770
5432.71    28.755949     3.255822
5433.32    24.679026     3.014179
5433.92    18.203100     3.277469
5434.53    16.266378     2.108926
5435.14    21.245173     1.052149
5435.74    25.923882     4.191947
5436.35    23.434673     4.472775
5436.96    19.932322     2.966634
5437.57    22.018187     4.580677
5438.17    18.976273     5.688343
5438.78    17.570080     4.056508
5439.39    19.211504     1.988029
5439.99    10.832711     4.152190
5440.60     9.458409     4.471413
5441.21    17.732058     1.769368
5441.82    21.042875     0.883078
5442.42    19.991011     1.576852
5443.03    19.033421     1.939677
5443.64    22.042759     1.117644
5444.24    28.655714     0.800245
5444.85    25.528673     1.262075
5445.46    14.000000     2.000000
5446.07    13.229951     2.636440
5446.67    17.218596     3.637691
5447.28    17.641630     3.887588
5447.89    13.683376     2.360153
5448.49    13.215404     1.656578
5449.10    13.835659     2.280005
5449.71    13.687529     2.990224
5450.32    19.257263     2.477572
5450.92    22.582331     1.686347
5451.53    22.046364     0.948742
5452.14    23.362663     0.341805
5452.74    16.062084     3.592340
5453.35    13.344081     5.827227
5453.96    26.443333     1.857405
5454.56    24.825632    -0.259269
5455.17    21.903690     0.304980
5455.78    27.096247     1.844129
5456.39    18.001423     4.439119
5456.99    11.633342     4.481976
5457.60    14.151018     2.972064
5458.21    14.846898     3.849679
5458.81    21.051933     3.473611
5459.42    27.928953     4.944551
5460.03    26.784197     9.717468
5460.64    22.210718     7.631843
5461.24    21.737337     4.307016
5461.85    24.963121     4.968008
5462.46    23.613451     5.272818
5463.06    23.680199     4.462112
5463.67    24.896351     4.052151
5464.28    21.394613     4.961356
5464.89    17.459879     4.270288
5465.49    15.808558     4.466825
5466.10    15.271036     7.590899
5466.71    12.854096     8.748115
5467.31    14.963998     6.962996
5467.92    19.991982     4.018762
5468.53    17.812191     2.276730
5469.14    21.866833     1.974806
5469.74    26.774334     1.942387
5470.35    19.459988     1.180352
5470.96    19.259268     0.873311
5471.56    21.925014     1.055308
5472.17    19.110531     1.041652
5472.78    21.084816     0.708808
5473.39    20.890991     1.712660
5473.99    18.008177     2.998011
5474.60    22.809547     1.493355
5475.21    25.951614     1.282092
5475.81    23.401041     1.944762
5476.42    20.142803     0.951213
5477.03    21.530241     2.477988
5477.64    20.860672     4.156048
5478.24    16.072468     3.152791
5478.85    20.305227     2.346259
5479.46    25.532660     1.598013
5480.06    26.003036     1.001404
5480.67    26.326664     1.689644
5481.28    24.635830     2.138584
5481.89    23.002829     1.974465
5482.49    24.619154     1.964574
5483.10    24.690186     2.248773
5483.71    19.976265     3.566841
5484.31    13.419550     5.016060
5484.92    13.455166     3.377614
5485.53    15.950172     1.282725
5486.14    20.157072     1.008542
5486.74    29.353077     1.740245
5487.35    28.523985     2.113063
5487.96    21.278187     1.980413
5488.56    21.396631     1.975862
5489.17    23.120636     2.068856
5489.78    22.479818     1.897007
5490.38    18.696049     1.891833
5490.99    13.528685     3.364705
5491.60    17.641045     3.938944
5492.21    26.025826     2.989710
5492.81    21.872517     2.845825
5493.42    24.562662     3.225346
5494.03    29.769775     2.827246
5494.63    22.311287     1.284872
5495.24    22.983957     1.055207
5495.85    25.635681     2.556347
5496.46    20.495775     3.986694
5497.06    20.165171     2.918828
5497.67    20.815845     1.691325
5498.28    22.001892     2.000234
5498.88    30.111477     2.718689
5499.49    30.239414     3.251230
5500.10    26.013103     2.854494
5500.71    29.272560     1.861364
5501.31    23.074987     3.532023
5501.92    14.896891     5.034866
5502.53    17.942699     3.337997
5503.13    24.155491     1.807278
5503.74    20.777414     2.752147
5504.35    13.959012     4.018743
5504.96    24.024834     1.502635
5505.56    27.093266     2.291238
5506.17    19.332827     5.058260
5506.78    18.254406     2.869158
5507.38    21.036970     1.140090
5507.99    23.398684     0.932758
5508.60    23.316847     0.862510
5509.21    20.740734     2.246894
5509.81    18.349491     3.010473
5510.42    20.670492     2.050529
5511.03    29.566557     1.290272
5511.63    30.719357     0.683355
5512.24    24.675209     1.139574
5512.85    23.669771     3.472313
5513.46    19.616608     3.981510
5514.06    15.885623     4.352327
5514.67    18.539829     6.138780
5515.28    18.853037     3.223456
5515.88    20.081499     0.861120
5516.49    23.884361     2.019244
5517.10    22.156492     0.222997
5517.71    18.396088     1.536656
5518.31    19.230772     5.030405
5518.92    25.818300     2.758745
5519.53    25.085575     2.616762
5520.13    20.766655     3.918487
5520.74    23.247047     1.552310
5521.35    24.619034     0.604218
5521.95    23.669022     1.121643
5522.56    22.263718     1.046268
5523.17    20.265694     0.729739
5523.78    23.428782     1.633474
5524.38    30.019754     3.001881
5524.99    30.257833     2.361206
5525.60    27.176428     1.946236
5526.20    24.796814     1.931438
5526.81    25.109102     1.089945
5527.42    29.050186     1.544109
5528.03    28.897884     3.648458
5528.63    21.815346     5.134789
5529.24    21.064590     2.656124
5529.85    23.989677     0.805965
5530.45    25.900024     1.956581
5531.06    27.758268     2.114597
5531.67    24.165695     2.054108
5532.28    20.034790     1.945495
5532.88    24.199909     1.040646
5533.49    22.965988     1.722636
5534.10    20.197626     3.221095
5534.70    25.617481     3.814981
5535.31    29.336765     4.891046
5535.92    23.974823     4.494378
5536.53    16.029964     2.166378
5537.13    22.831404     1.688360
5537.74    26.964819     2.213920
5538.35    21.913692     1.978143
5538.95    21.252794     1.313901
5539.56    18.967909     4.539341
5540.17    13.096431     8.166810
5540.78    10.541000     6.050644
5541.38    20.307125     2.744495
5541.99    28.723896     0.481403
5542.60    24.699385    -0.167448
5543.20    23.863350     1.866634
5543.81    30.182013     3.079045
5544.42    35.073685     2.036903
5545.03    27.263388     1.784318
5545.63    21.165852     2.332607
5546.24    23.305109     3.059928
5546.85    26.954702     3.749043
5547.45    29.164209     4.387686
5548.06    28.637243     3.619946
5548.67    26.904686     1.296571
5549.28    29.204723     1.276880
5549.88    30.975676     2.132061
5550.49    28.345352     1.995941
5551.10    25.590944     2.720186
5551.70    22.478262     5.536452
5552.31    22.046173     6.975726
5552.92    28.064075     2.450589
5553.53    26.023899     1.390685
5554.13    17.024567     4.264585
5554.74    14.311384     4.348588
5555.35    18.445242     3.097181
5555.95    22.490377     1.602180
5556.56    22.068645     0.840503
5557.17    22.860960     2.817059
5557.77    24.530039     4.028211
5558.38    25.878843     3.030100
5558.99    27.587318     3.537146
5559.60    24.685978     4.152636
5560.20    19.893131     3.993485
5560.81    21.558741     4.013357
5561.42    24.770920     3.889003
5562.02    24.615913     4.121789
5562.63    20.882486     4.959934
5563.24    18.872766     4.325918
5563.85    19.193363     2.395635
5564.45    19.209026     1.018055
5565.06    17.291096     1.740253
5565.67    20.404102     1.550557
5566.27    25.051060     0.015045
5566.88    17.467243     0.977102
5567.49    13.678579     3.149762
5568.10    17.203514     5.169815
5568.70    17.161427     6.312919
5569.31    17.915014     4.217221
5569.92    23.667086     1.796557
5570.52    30.214693     3.231054
5571.13    22.980423     6.768820
5571.74    12.798740     7.697385
5572.35    13.345949     5.201098
5572.95    20.105213     5.837180
5573.56    20.857536    13.082312
5574.17    17.991734    24.962097
5574.77    25.558769    35.508003
5575.38    26.785446    42.266956
5575.99    23.083933    49.018993
5576.60    28.511305    58.459385
5577.20    30.159576    58.346607
5577.81    34.162777    48.296570
5578.42    42.917282    37.489201
5579.02    26.657543    34.139912
5579.63     8.385742    35.545296
5580.24    11.987344    35.285477
5580.85    23.075222    30.324068
5581.45    30.314934    24.738102
5582.06    29.948748    21.980345
5582.67    25.046841    21.425188
5583.27    21.262695    19.546368
5583.88    19.855503    14.067620
5584.49    19.967888     6.572000
5585.10    25.497234     3.935643
5585.70    33.940289     3.724585
5586.31    37.628284     2.044674
5586.92    29.812790     3.477532
5587.52    20.604134     5.327734
5588.13    19.733063     4.206939
5588.74    23.507568     1.640939
5589.35    19.362354     1.388676
5589.95    13.040845     3.019476
5590.56    22.586201     2.497890
5591.17    29.146381     1.653665
5591.77    25.137203     3.518393
5592.38    19.538157     7.642386
5592.99    20.727715     6.031535
5593.59    22.886303     2.584738
5594.20    19.575201     2.977149
5594.81    18.590824     1.942513
5595.42    21.178606     0.936908
5596.02    23.085545     2.735838
5596.63    19.463745     6.157402
5597.24    15.743501     6.429175
5597.84    17.119694     2.892904
5598.45    22.266144     0.116786
5599.06    21.024847     1.106338
5599.67    16.822765     3.071395
5600.27    20.078115     1.678378
5600.88    26.592155    -0.107446
5601.49    32.142174     0.446586
5602.09    34.192307     2.773932
5602.70    31.237211     2.562810
5603.31    26.294014     2.129383
5603.92    22.299179     2.996823
5604.52    19.742949     2.172821
5605.13    21.621965     2.625504
5605.74    27.124657     3.996415
5606.34    30.493279     2.443491
5606.95    27.075769     2.547277
5607.56    21.578836     4.080654
5608.17    21.550076     3.378474
5608.77    22.722683     2.422921
5609.38    24.697582     1.864574
5609.99    25.224264     1.795932
5610.59    15.236090     3.585408
5611.20    14.790112     5.476549
5611.81    27.547314     5.177295
5612.42    22.317642     2.699403
5613.02    18.412357     2.475703
5613.63    24.028780     3.999135
5614.24    20.994162     2.391500
5614.84    14.599316     2.865665
5615.45    13.308125     5.136039
5616.06    18.612679     4.530604
5616.67    20.597893     3.072859
5617.27    21.777502     3.297394
5617.88    27.717146     4.940303
5618.49    31.996710     3.695721
5619.09    33.104244     1.422244
5619.70    31.427763     0.960114
5620.31    26.488493     1.625454
5620.92    22.977804     2.113384
5621.52    21.024244     2.001152
5622.13    15.905338     1.934681
5622.74    13.375978     2.142925
5623.34    16.516756     1.918646
5623.95    22.423452     0.967589
5624.56    25.199631     2.040507
5625.17    23.331560     4.434743
5625.77    20.770479     5.246279
5626.38    24.421501     3.255764
5626.99    26.743902     2.019828
5627.59    23.243536     3.001640
5628.20    24.363472     1.728664
5628.81    26.400564     1.223221
5629.41    25.071764     2.955106
5630.02    23.929411     3.402553
5630.63    31.065716     2.253233
5631.24    36.773846     0.945521
5631.84    25.814774     0.886197
5632.45    20.910582     1.097552
5633.06    27.439678     0.945665
5633.66    33.627728     0.838229
5634.27    31.531385     1.971823
5634.88    27.347073     3.233410
5635.49    26.445072     3.136281
5636.09    21.657177     2.141480
5636.70    18.807772     2.395983
5637.31    22.643850     3.941851
5637.91    28.600552     3.795586
5638.52    32.226227     1.991426
5639.13    29.728628     1.028826
5639.74    21.694138     3.130977
5640.34    21.475523     4.461698
5640.95    27.744310     3.871276
5641.56    29.006241     3.105408
5642.16    23.923241     3.038569
5642.77    21.281935     2.854631
5643.38    25.501707     2.066420
5643.99    24.692644     2.335561
5644.59    20.850922     3.371333
5645.20    19.892540     3.998475
5645.81    22.785965     3.495643
5646.41    29.304457     2.642654
5647.02    32.989822     1.996919
5647.63    26.131344     1.333657
5648.24    21.785213     0.553321
5648.84    24.387518    -0.035219
5649.45    27.916300    -0.060844
5650.06    30.557314     0.195652
5650.66    29.168377     1.389431
5651.27    24.377838     3.603292
5651.88    25.904303     4.434672
5652.49    25.874500     3.639680
5653.09    20.982601     2.198502
5653.70    25.747202     1.066622
5654.31    23.828260     1.348704
5654.91    12.241056     2.937415
5655.52    13.224127     4.114806
5656.13    17.802065     3.283293
5656.74    17.906153     3.140975
5657.34    17.306871     6.624030
5657.95    24.789053     4.929317
5658.56    29.525198     0.646715
5659.16    20.586365     1.468343
5659.77    21.055779     2.742373
5660.38    25.042973     3.088155
5660.99    20.709393     3.777829
5661.59    19.972717     5.075584
5662.20    25.588266     4.233697
5662.81    29.295944     2.015449
5663.41    20.229061     3.878429
5664.02    16.162975     4.931328
5664.63    20.002594     2.968152
5665.23    16.355049     1.852381
5665.84    19.675346     2.758177
5666.45    27.383453     4.064898
5667.06    25.667175     3.494593
5667.66    25.841785     1.892124
5668.27    25.018156     0.940836
5668.88    18.534475     1.663654
5669.48    21.250946     3.075653
5670.09    27.229132     2.352719
5670.70    27.239605     0.044618
5671.31    25.237823     1.735745
5671.91    23.205235     3.008275
5672.52    22.014688     2.001112
5673.13    22.386078     3.290085
5673.73    23.704521     4.126213
5674.34    22.775770     4.039203
5674.95    17.891495     5.071618
5675.56    18.384686     3.826704
5676.16    22.399904     3.317191
5676.77    21.849556     7.219021
5677.38    18.492598     7.630734
5677.98    17.143091     3.879203
5678.59    20.210009     0.972549
5679.20    23.789621     3.313567
5679.81    22.918674     4.869433
5680.41    19.930086     3.034095
5681.02    24.352627     4.472587
5681.63    27.338984     4.166537
5682.23    23.975031     2.000965
5682.84    20.415030     4.684180
5683.45    20.958059     6.361643
5684.06    24.315475     4.793624
5684.66    26.022339     3.205934
5685.27    25.284624     3.253688
5685.88    25.314844     4.143015
5686.48    26.634943     4.749248
5687.09    20.665558     6.119886
5687.70    13.603332     7.133578
5688.31    14.969707     7.002677
5688.91    23.777678     7.409878
5689.52    26.109360     8.433674
5690.13    18.400957     9.012563
5690.73    14.446472     7.958962
5691.34    16.903172     5.985507
5691.95    21.102583     3.915564
5692.56    21.326748     2.652583
5693.16    21.011702     4.592110
5693.77    22.242579     5.786351
5694.38    24.804310     1.941248
5694.98    28.868856     0.902770
5695.59    27.709360     2.149190
5696.20    19.282286     1.979608
5696.81    17.511631     2.625905
5697.41    21.393902     2.848003
5698.02    25.500256     2.014921
5698.63    29.542168     2.673104
5699.23    31.335749     2.763682
5699.84    31.002178     1.997108
5700.45    31.257320     3.204617
5701.05    29.888794     4.581903
5701.66    25.600943     5.016044
5702.27    21.072136     5.075503
5702.88    23.889233     4.723087
5703.48    29.585773     3.795009
5704.09    29.537043     2.388063
5704.70    27.636627     1.342153
5705.30    25.289793     2.751816
5705.91    25.075197     5.820117
5706.52    33.342281     4.606469
5707.13    36.010422     2.672080
5707.73    26.812592     2.995514
5708.34    21.683308     2.359121
5708.95    26.330051     2.082173
5709.55    31.996624     3.006535
5710.16    26.734247     3.480636
5710.77    30.019119     1.651207
5711.38    34.428764     0.023493
5711.98    20.002825     2.147822
5712.59    15.856336     3.791501
5713.20    20.189468     4.048135
5713.80    16.761435     4.142361
5714.41    16.521212     3.050259
5715.02    20.037012     1.691595
5715.63    24.104607     1.081991
5716.23    30.533672     0.460659
5716.84    32.833149    -0.278311
5717.45    28.352478    -0.092646
5718.05    23.568190     2.149851
5718.66    21.223930     2.961660
5719.27    19.933517     1.985428
5719.88    17.735617     2.487000
5720.48    20.430655     3.663238
5721.09    24.057692     3.937420
5721.70    22.016455     3.063380
5722.30    24.812132     3.579019
5722.91    27.942554     3.794551
5723.52    24.517445     2.145411
5724.13    25.125261     2.687456
5724.73    29.266836     2.484206
5725.34    30.394119     0.108882
5725.95    24.503448     1.342384
5726.55    17.704786     3.836453
5727.16    17.772453     4.053244
5727.77    25.881786     1.923010
5728.38    26.171682     0.718491
5728.98    19.865078     1.004783
5729.59    22.373829     0.853837
5730.20    24.824282     1.746362
5730.80    23.826494     3.133041
5731.41    24.070936     3.192699
5732.02    28.463726     2.417084
5732.63    29.093727     2.001668
5733.23    23.247942     2.112870
5733.84    27.264338     0.931758
5734.45    30.758638    -0.204407
5735.05    24.714806     0.727213
5735.66    21.039976     3.724725
5736.27    21.542942     5.157232
5736.87    21.081215     4.025977
5737.48    15.577961     3.235843
5738.09    18.269831     2.693218
5738.70    27.461195     1.937820
5739.30    29.256050     1.155554
5739.91    28.930141     0.996771
5740.52    27.467836     0.938154
5741.12    23.018532     0.729680
5741.73    21.091150     2.558817
5742.34    22.576073     4.107412
5742.95    23.471451     3.194378
5743.55    19.168415     2.576631
5744.16    21.787697     1.345220
5744.77    31.660805    -0.044702
5745.37    27.511171     1.984219
5745.98    21.267897     2.822709
5746.59    21.001463     1.004431
5747.20    19.796326     0.709101
5747.80    21.836884     1.398120
5748.41    26.297777     2.049696
5749.02    27.777159     2.643417
5749.62    28.334539     3.904341
5750.23    24.650162     5.150794
5750.84    16.616180     5.187226
5751.45    19.862854     4.155378
5752.05    25.549297     2.512189
5752.66    21.943312     1.112780
5753.27    17.617773     1.201082
5753.87    17.715639     2.642816
5754.48    23.346195     3.972281
5755.09    31.778910     3.439689
5755.70    33.105858     2.927766
5756.30    26.918221     2.995270
5756.91    22.280750     2.241229
5757.52    16.154541     2.103571
5758.12    11.992435     3.145227
5758.73    16.133930     4.567109
5759.34    20.403610     5.516687
5759.95    23.906487     4.579902
5760.55    27.340832     2.206911
5761.16    22.412338     2.920423
5761.77    19.482672     3.970411
5762.37    26.049870     3.003003
5762.98    28.937849     4.202025
5763.59    26.876377     4.887261
5764.20    23.236544     3.993990
5764.80    21.068621     5.005768
5765.41    27.568140     3.845130
5766.02    36.072182     0.960799
5766.62    31.803289     1.900758
5767.23    27.172213     4.402965
5767.84    26.999950     4.833401
5768.45    26.371746     2.432720
5769.05    25.226961     2.608619
5769.66    25.193996     4.151866
5770.27    27.901373     3.376911
5770.87    33.142879     1.905804
5771.48    34.468060     2.623815
5772.09    28.914431     4.927405
5772.69    23.738152     3.481330
5773.30    23.818291     1.548595
5773.91    25.136633     1.957687
5774.52    18.645872     2.766013
5775.12    16.224781     3.056704
5775.73    20.128311     3.002255
5776.34    20.801231     3.094405
5776.94    22.172119     2.666984
5777.55    22.731724     3.274879
5778.16    19.826920     5.762248
5778.77    23.743607     4.777075
5779.37    28.196098     2.879914
5779.98    25.413116     3.852775
5780.59    25.952108     3.568000
5781.19    26.632376     2.995665
5781.80    24.132168     3.108785
5782.41    24.620480     1.441647
5783.02    21.908293     1.624691
5783.62    18.887497     3.963836
5784.23    27.905230     3.550436
5784.84    29.520790     2.821857
5785.44    22.807610     3.001079
5786.05    24.824444     2.874761
5786.66    25.698795     3.649288
5787.27    21.076347     5.248044
5787.87    16.268480     6.134345
5788.48    18.442984     4.911495
5789.09    24.308842     4.073230
5789.69    26.366745     5.657558
5790.30    22.264833     6.806661
5790.91    18.131969     7.016971
5791.52    18.752043     6.994170
5792.12    21.071766     6.860865
5792.73    19.611853     4.647367
5793.34    17.958481     2.007643
5793.94    25.579391     3.338170
5794.55    30.158978     3.766041
5795.16    27.755787     3.045976
5795.77    24.685036     4.705626
5796.37    19.467787     4.162631
5796.98    20.259377     1.614416
5797.59    30.735664     0.769542
5798.19    28.008650     2.434495
5798.80    17.825836     4.329331
5799.41    15.552526     4.205931
5800.02    20.175112     2.751916
5800.62    25.631237     1.891744
5801.23    26.276600     2.840734
5801.84    20.839851     4.744461
5802.44    17.111450     4.299556
5803.05    20.039064     1.990350
5803.66    26.492212     1.818894
5804.27    27.201000     1.962342
5804.87    22.575752     2.072507
5805.48    21.066137     3.019642
5806.09    25.661568     2.063333
5806.69    30.430830     1.043125
5807.30    29.473753     2.596413
5807.91    28.071209     3.426541
5808.51    24.345312     2.672317
5809.12    19.801151     1.928486
5809.73    26.130831     3.276258
5810.34    31.973930     3.849846
5810.94    29.259733     2.124990
5811.55    25.874065     0.880494
5812.16    21.937279     1.669140
5812.76    20.047220     3.008090
5813.37    24.805946     2.625561
5813.98    28.326050     4.802947
5814.59    25.233307     8.258341
5815.19    19.550329     7.902533
5815.80    26.416815     4.476413
5816.41    34.386139     1.684910
5817.01    28.647221     1.855448
5817.62    24.355228     2.116695
5818.23    25.937082     1.966127
5818.84    27.417524     1.988091
5819.44    21.014896     2.055774
5820.05    18.515453     1.895092
5820.66    22.919767     1.970032
5821.26    21.753618     2.959181
5821.87    25.026003     2.305681
5822.48    32.193687     1.001903
5823.09    30.491138     2.411761
5823.69    23.973539     3.110345
5824.30    22.545870     1.711523
5824.91    28.666836     0.070160
5825.51    24.336548     0.896024
5826.12    19.064646     2.047409
5826.73    25.633770     1.168630
5827.34    28.937906     0.912977
5827.94    27.212675     0.919875
5828.55    25.912462     0.903234
5829.16    27.469965     2.656291
5829.76    22.129932     4.856143
5830.37    14.014613     5.025949
5830.98    20.347675     2.121027
5831.59    25.080757     0.795128
5832.19    24.055563     2.121964
5832.80    27.469309     3.049990
5833.41    30.263092     2.420978
5834.01    25.283192     2.138072
5834.62    13.802814     3.724394
5835.23    12.729629     3.762802
5835.84    16.449751     2.818592
5836.44    16.540430     2.887942
5837.05    22.092390     3.686119
5837.66    26.921440     3.938451
5838.26    25.270092     3.090483
5838.87    22.006630     2.112437
5839.48    20.937325     2.286441
5840.09    22.015705     3.001584
5840.69    22.982161     2.379933
5841.30    26.302902     1.756266
5841.91    30.291653     2.083188
5842.51    30.605051     2.897836
5843.12    28.236311     2.705209
5843.73    25.533457     1.845395
5844.33    25.315283     1.780636
5844.94    29.462486     3.199080
5845.55    28.174273     3.988526
5846.16    18.898840     3.823210
5846.76    17.431547     6.202881
5847.37    19.608202     6.331804
5847.98    21.776484     3.102593
5848.58    28.578129     2.641814
5849.19    31.016409     3.137889
5849.80    27.866507     2.992969
5850.41    27.729694     2.984813
5851.01    31.861673     2.992330
5851.62    32.306679     3.013759
5852.23    23.885098     3.065262
5852.83    21.549082     2.725725
5853.44    22.924950     3.378453
5854.05    20.454277     4.987964
5854.66    19.713388     3.518957
5855.26    22.110411     1.652987
5855.87    26.474857     1.943308
5856.48    30.386232     2.398568
5857.08    24.887274     3.862926
5857.69    16.998619     5.004369
5858.30    24.757526     2.783638
5858.91    27.146494     2.288679
5859.51    21.795954     4.129345
5860.12    23.553677     4.342651
5860.73    22.362806     3.071556
5861.33    20.091604     1.864049
5861.94    23.871490     2.424798
5862.55    26.909695     5.394650
5863.16    26.599911     6.993338
5863.76    22.960453     5.257600
5864.37    16.770166     4.627113
5864.98    20.569969     5.319707
5865.58    30.845676     5.979665
5866.19    24.767036     6.029714
5866.80    18.360632     6.015428
5867.41    21.168667     4.898206
5868.01    24.594894     1.649360
5868.62    24.027596     1.736887
5869.23    19.146929     4.229420
5869.83    14.627298     4.299809
5870.44    19.792667     3.304068
5871.05    25.257181     3.098695
5871.66    22.885719     3.911795
5872.26    27.508141     3.696973
5872.87    30.804192     2.619060
5873.48    24.783422     1.986997
5874.08    19.237865     2.639121
5874.69    18.120478     2.960205
5875.30    20.962095     2.012540
5875.91    24.892666     0.925917
5876.51    26.248972     1.806131
5877.12    26.058990     2.982502
5877.73    27.164143     1.483874
5878.33    25.500628     1.015664
5878.94    27.228151     2.268082
5879.55    35.975307     3.085195
5880.15    34.093468     2.136061
5880.76    25.957193     2.554739
5881.37    22.242115     4.936363
5881.98    22.031614     3.271353
5882.58    26.279049     2.118746
5883.19    30.080219     3.935197
5883.80    24.605341     4.021099
5884.40    25.032835     4.527966
5885.01    28.856054     6.049333
5885.62    19.703367     6.228350
5886.23    18.227074     5.626287
5886.83    23.218641     6.278725
5887.44    21.064926     8.669369
5888.05    24.482599     8.342723
5888.65    31.339855     6.774760
5889.26    33.162083     6.918123
5889.87    31.019142     7.273602
5890.48    25.891771     8.775095
5891.08    21.154041    10.111991
5891.69    22.164476     6.793301
5892.30    22.507015     4.726192
5892.90    19.984438     6.008852
5893.51    18.738461     6.745681
5894.12    12.650530    11.137056
5894.73     5.616502    15.003291
5895.33     7.247774    10.839157
5895.94    12.911581     6.648993
5896.55    19.463940     6.157335
5897.15    25.808681     7.107111
5897.76    29.339342     5.317465
5898.37    25.910236     4.035847
5898.98    18.471767     5.037311
5899.58    19.136269     3.177028
5900.19    21.371832     1.935398
5900.80    21.929749     2.984790
5901.40    26.732830     2.913045
5902.01    26.880259     3.708555
5902.62    22.823137     6.227662
5903.23    23.800232     8.213264
5903.83    26.879597     6.019890
5904.44    24.881329     2.633509
5905.05    16.466734     2.715599
5905.65    14.987641     3.663850
5906.26    19.250345     4.036250
5906.87    21.901861     3.989871
5907.48    21.909365     4.150216
5908.08    27.394754     3.645452
5908.69    33.189064     2.981343
5909.30    21.426407     4.011681
5909.90    15.899521     2.910726
5910.51    23.361753    -0.115100
5911.12    26.257086    -0.155620
5911.73    24.746716     3.857742
5912.33    19.980392     7.126523
5912.94    15.321943     4.967307
5913.55    22.505253     2.223287
5914.15    25.799948     2.444201
5914.76    15.785626     4.798759
5915.37    19.352186     4.277853
5915.97    24.163759     2.426333
5916.58    19.295952     1.971824
5917.19    18.107037     3.002202
5917.80    16.990623     5.058234
5918.40    16.080309     5.971769
5919.01    21.262564     3.771751
5919.62    23.177874     2.949890
5920.22    22.047724     4.160748
5920.83    22.348541     4.865984
5921.44    14.181620     5.226803
5922.05     7.830085     4.740784
5922.65    13.694000     3.256843
5923.26    18.238810     2.355222
5923.87    23.569248     1.747724
5924.47    31.513680     1.041408
5925.08    33.348347     0.889254
5925.69    30.244789     1.123990
5926.30    26.965826     0.987420
5926.90    26.745693     0.445608
5927.51    27.004601     2.996437
5928.12    25.741650     6.160788
5928.72    23.944670     4.872151
5929.33    25.586809     2.372648
5929.94    26.773960     2.380705
5930.55    22.378899     4.786395
5931.15    16.294632     4.278528
5931.76    20.331139     4.754524
5932.37    31.594320     8.667036
5932.97    27.462997    10.160873
5933.58    21.688976     6.930103
5934.19    26.089437     1.960970
5934.80    33.954781     1.049116
5935.40    32.302761     4.004461
5936.01    24.269045     5.929325
5936.62    22.923168     2.981787
5937.22    27.574991     1.251599
5937.83    29.656288     2.409280
5938.44    24.873875     3.927587
5939.05    23.154303     3.184848
5939.65    24.459976     1.521068
5940.26    25.028835     1.777354
5940.87    24.261616     4.976605
5941.47    24.225880     5.483720
5942.08    25.001930     2.985801
5942.69    24.066132     3.432172
5943.30    21.110807     4.395742
5943.90    17.630293     5.166829
5944.51    16.377861     6.314675
5945.12    20.114058     3.785369
5945.72    24.739269     2.272367
5946.33    25.878296     5.590273
5946.94    26.575897     5.234440
5947.55    24.897532     3.937995
5948.15    21.183573     4.950543
5948.76    21.382673     4.483562
5949.37    21.889858     3.891906
5949.97    20.995375     3.997252
5950.58    21.618044     3.388862
5951.19    22.323772     2.514206
5951.79    24.534693     1.956215
5952.40    27.865063     2.396257
5953.01    20.593134     5.127272
5953.62    15.403898     7.128736
5954.22    24.302078     6.161986
5954.83    28.409172     6.253503
5955.44    23.479435     7.390201
5956.04    18.014261     7.166255
5956.65    22.479046     3.866180
5957.26    24.840467     0.976390
5957.87    23.042570     1.045189
5958.47    27.970615     2.840785
5959.08    30.713600     2.100442
5959.69    27.239422     2.534620
5960.29    22.461304     8.144829
5960.90    23.551813     7.497672
5961.51    26.270988     3.169705
5962.12    23.877052     2.737130
5962.72    18.567488     4.797880
5963.33    17.650335     6.326012
5963.94    20.072525     6.045417
5964.54    15.555072     5.303652
5965.15    15.379867     4.784302
5965.76    21.224676     3.918944
5966.37    22.307795     2.228151
5966.97    21.531729     2.623250
5967.58    17.931128     4.160044
5968.19    10.900267     4.662700
5968.79    11.502182     6.569925
5969.40    15.972606     6.324286
5970.01    17.719028     3.115643
5970.62    20.114384     5.141035
5971.22    20.786604     7.230291
5971.83    19.045107     5.100642
5972.44    18.742653     2.556987
5973.04    19.299955     2.118798
5973.65    20.089384     3.050951
5974.26    21.447283     3.071419
5974.87    22.798883     2.996429
5975.47    21.252377     2.961452
5976.08    16.611267     2.879631
5976.69    16.520212     3.921108
5977.29    18.311333     5.437016
5977.90    18.803385     5.266547
5978.51    21.443693     1.907318
5979.12    20.917156     1.905925
5979.72    16.992542     5.002655
5980.33    16.662474     3.154569
5980.94    17.157476     1.515324
5981.54    19.632322     2.066134
5982.15    25.944393     2.119745
5982.76    25.761446     1.706696
5983.36    19.259916     2.367496
5983.97    14.841377     3.964215
5984.58    19.383844     2.826683
5985.19    23.494972     2.199485
5985.79    20.334774     3.910270
5986.40    16.783642     3.890622
5987.01    19.172194     1.798570
5987.61    25.223333    -0.027017
5988.22    27.110556     0.645021
5988.83    26.427830     1.076675
5989.44    23.134130     1.075761
5990.04    18.814713     1.877239
5990.65    23.420954     1.903851
5991.26    26.572720     2.311577
5991.86    22.080275     3.125898
5992.47    26.364414     0.898365
5993.08    28.210815     0.514973
5993.69    23.052792     2.975918
5994.29    24.046314     2.479442
5994.90    24.766100     2.054920
5995.51    22.860031     3.114662
5996.11    22.758902     3.881073
5996.72    23.616142     4.055834
5997.33    25.638153     3.994760
5997.94    27.984859     4.009426
5998.54    26.220272     3.758034
5999.15    25.333288     2.283109
5999.76    28.700752     0.948059
6000.36    30.873106     3.123133
6000.97    27.639498     3.611044
6001.58    22.923128     1.986800
6002.19    24.646751     3.339671
6002.79    27.178724     4.316366
6003.40    23.799873     3.934903
6004.01    16.349197     3.365945
6004.61    20.975292     1.537460
6005.22    29.808914     1.442364
6005.83    29.649584     3.854243
6006.44    23.094080     3.291039
6007.04    16.831591     3.715673
6007.65    14.995520     5.017980
6008.26    17.153027     1.167458
6008.86    21.504158     0.829433
6009.47    22.722038     4.256692
6010.08    17.000662     4.331037
6010.69    12.215182     3.463689
6011.29    10.900528     2.831741
6011.90    14.228376     2.114947
6012.51    26.517939     1.747197
6013.11    29.356689     2.404571
6013.72    17.596674     3.911957
6014.33    13.459181     4.933798
6014.94    14.801234     4.720031
6015.54    17.227903     3.970742
6016.15    20.540071     3.963569
6016.76    20.173763     3.942516
6017.36    19.164415     4.095702
6017.97    21.042233     4.273387
6018.58    18.481401     2.147933
6019.18    15.646441     1.161144
6019.79    17.647663     2.898152
6020.40    20.718937     2.561675
6021.01    19.922094     1.892550
6021.61    18.033314     3.056809
6022.22    22.254692     5.004554
6022.83    24.603477     3.619843
6023.43    19.720547     2.138235
6024.04    12.262390     4.724420
6024.65    17.171618     3.524400
6025.26    27.429810     2.213315
6025.86    30.967674     4.780448
6026.47    29.217890     4.567521
6027.08    22.597616     4.174929
6027.68    15.032904     5.001054
6028.29    14.074307     3.677378
6028.90    19.958866     2.678637
6029.51    25.211210     3.078251
6030.11    22.991749     3.759804
6030.72    20.851952     4.574522
6031.33    19.441938     5.046620
6031.93    17.830042     4.316250
6032.54    21.013149     1.936407
6033.15    23.035442     1.138035
6033.76    19.198858     2.937138
6034.36    14.048355     4.032803
6034.97    17.110561     3.585706
6035.58    24.443144     3.015702
6036.18    23.240273     3.807258
6036.79    15.370750     3.817863
6037.40    16.013191     2.696947
6038.01    28.156664     1.937903
6038.61    23.431988     3.068099
6039.22    18.061422     4.263013
6039.83    23.823051     4.034521
6040.43    22.934143     3.332950
6041.04    26.009808     2.695240
6041.65    30.919025     1.911563
6042.26    23.331944     0.966106
6042.86    16.118515     1.850744
6043.47    16.847019     3.115020
6044.08    21.632626     2.959088
6044.68    20.068693     3.707320
6045.29    17.961866     3.697822
6045.90    19.922775     2.087681
6046.51    19.432600     1.670061
6047.11    19.289419     2.519029
6047.72    21.141552     2.966805
6048.33    23.550522     2.013487
6048.93    28.197344     2.941551
6049.54    26.267288     3.928714
6050.15    15.097569     2.296469
6050.76    17.393143     1.996802
6051.36    22.509161     3.781852
6051.97    19.225288     5.054622
6052.58    18.819529     2.582025
6053.18    21.396641     0.140052
6053.79    22.998943     1.195906
6054.40    21.567789     5.028869
6055.00    20.887270     6.184217
6055.61    24.051992     4.683332
6056.22    28.197971     3.344646
6056.83    23.260063     1.607781
6057.43    20.497747     1.141073
6058.04    24.071404     1.997084
6058.65    17.483000     1.460827
6059.25    10.587233     3.863688
6059.86    12.387574     7.014976
6060.47    19.414780     4.186074
6061.08    20.754333     2.279754
6061.68    17.382198     3.298976
6062.29    16.666409     4.718533
6062.90    19.134865     5.652707
6063.50    19.437559     3.932240
6064.11    17.024673     1.046872
6064.72    19.244862     2.407661
6065.33    21.953804     2.330797
6065.93    18.351734     1.078917
6066.54     9.461397     4.154613
6067.15    14.752302     4.801769
6067.75    23.701908     2.489234
6068.36    20.469276     1.720348
6068.97    21.699364     4.400979
6069.58    22.138300     6.119078
6070.18    20.740051     4.141708
6070.79    30.323002     1.941347
6071.40    27.051941     3.268906
6072.00    14.456987     4.905747
6072.61    18.416954     1.735939
6073.22    24.341999     1.505035
6073.83    26.394072     3.149558
6074.43    27.131105     2.223370
6075.04    25.151196     1.540854
6075.65    21.549435     2.704966
6076.25    20.904673     4.008221
6076.86    26.693974     2.436069
6077.47    26.063562     2.629705
6078.08    19.381523     3.996075
6078.68    17.769497     2.449759
6079.29    18.999331     1.812906
6079.90    22.096992     1.920064
6080.50    26.469561     1.114538
6081.11    28.360594     0.733369
6081.72    24.554687     1.457914
6082.33    17.981199     3.006549
6082.93    15.988537     4.153953
6083.54    15.998007     2.923235
6084.15    16.031071     0.777341
6084.75    17.199274     0.713753
6085.36    21.292740     2.112592
6085.97    24.523174     3.175926
6086.58    23.331612     3.039604
6087.18    20.005909     2.837824
6087.79    19.232605     3.353020
6088.40    21.057697     4.006487
6089.00    21.629337     3.453285
6089.61    23.235180     2.214051
6090.22    23.712505     2.221606
6090.82    21.778082     3.862384
6091.43    25.388769     3.355268
6092.04    25.808098     3.438975
6092.65    19.291721     5.004071
6093.25    18.676907     3.135456
6093.86    21.345083     1.587813
6094.47    23.104357     2.047464
6095.07    22.874367     2.589764
6095.68    19.081520     4.300550
6096.29    17.240776     4.721123
6096.90    19.924242     2.318210
6097.50    17.977623     1.665800
6098.11    20.444113     2.178879
6098.72    25.035599     2.983175
6099.32    15.065062     4.808022
6099.93    14.137697     4.067802
6100.54    24.241989     1.786245
6101.15    27.395100     1.770850
6101.75    24.290842     2.772748
6102.36    19.738066     4.787093
6102.97    16.370644     6.932425
6103.57    13.260114     6.027532
6104.18    14.255301     4.371607
6104.79    18.137974     4.007064
6105.40    19.363422     4.180874
6106.00    22.252098     3.135792
6106.61    25.331591     1.851728
6107.22    24.474123     1.936977
6107.82    22.002502     2.074040
6108.43    20.918543     1.936459
6109.04    21.946522     1.984729
6109.65    23.264488     2.650688
6110.25    25.034096     3.272577
6110.86    25.965029     2.858986
6111.47    24.501568     1.324395
6112.07    23.501879     0.837389
6112.68    26.390257     0.994842
6113.29    30.154310     0.951962
6113.90    23.822550     1.693818
6114.50    13.788418     1.941751
6115.11    11.140513     2.038651
6115.72    19.233360     3.671076
6116.32    22.999712     3.604087
6116.93    17.316446     3.120829
6117.54     9.071482     4.731366
6118.15     7.773506     4.987813
6118.75    13.856403     3.118838
6119.36    20.831451     1.042663
6119.97    21.197279     1.019474
6120.57    18.546141     0.443029
6121.18    15.576643     0.154454
6121.79    12.462934     2.531983
6122.40    12.279386     2.815371
6123.00    14.972819     1.856764
6123.61    19.344988     1.994796
6124.22    24.554819     1.819282
6124.82    22.950871     2.603754
6125.43    20.186218     4.038427
6126.04    28.530479     3.623873
6126.64    26.336876     1.536505
6127.25    17.993608    -0.221330
6127.86    19.342438    -0.130749
6128.47    21.808100     0.607640
6129.07    21.591833     1.166096
6129.68    20.020769     1.013414
6130.29    19.107609     0.445721
6130.89    15.507926     2.917217
6131.50    15.975743     4.871623
6132.11    24.599232     1.635475
6132.72    18.911560     1.164184
6133.32    15.160006     1.978462
6133.93    22.940798     1.036534
6134.54    15.724245     1.514172
6135.14    16.181112     2.249006
6135.75    26.429567     1.930193
6136.36    24.066290     1.094249
6136.97    23.688314     1.331975
6137.57    24.553818     2.191967
6138.18    20.445446     2.858779
6138.79    19.570457     3.956433
6139.39    19.948114     3.373767
6140.00    18.965162     2.000345
6140.61    18.574654     3.037113
6141.22    20.307871     1.619561
6141.82    19.002277     1.697984
6142.43    11.994125     7.282211
6143.04    10.983525     7.654900
6143.64    19.088356     5.297909
6144.25    28.890373     4.036848
6144.86    28.704262     1.653262
6145.47    21.494968     1.108727
6146.07    18.350708     2.085029
6146.68    24.767256     2.003554
6147.29    25.812328     2.396563
6147.89    21.471958     3.288546
6148.50    18.140459     3.107919
6149.11    17.393847     0.718206
6149.72    19.180397     0.334543
6150.32    19.800909     2.159583
6150.93    17.013674     2.328111
6151.54    19.627728     0.930059
6152.14    19.758059     1.783690
6152.75    13.257750     4.909690
6153.36    16.496367     3.215279
6153.97    22.012636     2.000328
6154.57    22.989826     3.002289
6155.18    22.787178     2.059783
6155.79    23.995008     3.003936
6156.39    23.260410     3.850094
6157.00    19.298473     2.133108
6157.61    19.828012     2.531893
6158.22    21.298159     2.836299
6158.82    21.001123     1.991079
6159.43    21.280479     2.626837
6160.04    19.674482     3.366927
6160.64    19.474968     2.674881
6161.25    22.143024     1.101166
6161.86    18.081631     1.758959
6162.46    16.922112     3.903221
6163.07    24.058201     4.998054
6163.68    29.206593     3.632560
6164.29    25.866360     2.584850
6164.89    22.043911     3.238058
6165.50    25.644390     4.121047
6166.11    23.968655     2.329923
6166.71    22.068205     0.717435
6167.32    23.991364     0.998648
6167.93    22.562017     0.775322
6168.54    22.328260     2.066563
6169.14    21.361172     4.296288
6169.75    17.003908     5.005263
6170.36    21.451550     4.686283
6170.96    27.181635     3.408271
6171.57    26.092117     2.020567
6172.18    23.771273     2.115936
6172.79    22.369488     1.219504
6173.39    21.979490    -0.054565
6174.00    20.327396     1.281396
6174.61    12.854494     4.615657
6175.21    11.192266     5.919463
6175.82    17.855869     4.082706
6176.43    15.856191     3.267591
6177.04    16.982733     2.342858
6177.64    22.459543     0.795151
6178.25    22.308632    -0.019093
6178.86    22.008240     0.543430
6179.46    23.745457     1.006812
6180.07    24.166233     0.960065
6180.68    19.024849     2.052731
6181.29    16.585712     0.914199
6181.89    16.786430     0.296312
6182.50    13.583865     4.910266
6183.11    13.318536     7.042927
6183.71    15.948655     5.027928
6184.32    19.675861     2.118987
6184.93    25.400040     1.271809
6185.54    26.761137     0.298718
6186.14    22.196005     0.239889
6186.75    16.289555     3.360306
6187.36    13.319005     4.231941
6187.96    21.561981     2.094434
6188.57    33.859825     0.033317
6189.18    26.062366     1.023164
6189.79    19.004164     2.939527
6190.39    19.981569     2.755799
6191.00    17.633402     0.316260
6191.61    16.375977     0.661801
6192.21    17.609446     2.499607
6192.82    19.877434     2.112123
6193.43    21.182579    -0.359899
6194.04    16.476967     2.951825
6194.64    11.983352     8.345541
6195.25    16.644093     6.124169
6195.86    20.705254     1.916811
6196.46    24.958406     1.559495
6197.07    28.089539     3.976633
6197.68    22.005636     2.247654
6198.28    24.621002     0.024522
6198.89    31.104351     0.173037
6199.50    25.295158     1.697133
6200.11    23.090668     2.605944
6200.71    24.161863     3.361783
6201.32    23.030352     4.003109
6201.93    21.023851     3.198889
6202.53    18.335075     3.333499
6203.14    15.500224     4.019353
6203.75    14.588720     3.241992
6204.36    18.150206     2.181992
6204.96    17.423967     2.201369
6205.57    10.960999     3.003884
6206.18    10.427379     3.012164
6206.78    15.556406     3.163238
6207.39    17.561131     2.741003
6208.00    13.886366     1.160539
6208.61    19.778429     1.226037
6209.21    27.460516     2.711205
6209.82    26.806734     4.031685
6210.43    20.805721     4.159995
6211.03    22.309910     3.584644
6211.64    26.249111     2.791728
6212.25    23.443869     2.073215
6212.86    21.286942     1.803047
6213.46    17.904625     2.439440
6214.07    10.256000     4.171652
6214.68     3.180463     5.989599
6215.28    12.575797     4.674484
6215.89    21.427584     2.693660
6216.50    15.404568     2.953864
6217.11    16.022440     3.089752
6217.71    15.858784     2.915930
6218.32    10.327808     3.049691
6218.93     8.032616     3.758837
6219.53    15.236424     4.486127
6220.14    22.441376     3.187505
6220.75    22.973810     1.007791
6221.36    24.910089     2.590840
6221.96    26.809151     1.991977
6222.57    25.447210    -0.075357
6223.18    20.317974     1.547256
6223.78    14.711311     2.919088
6224.39    13.111534     2.848789
6225.00    16.017727     1.994507
6225.61    19.469006     1.063014
6226.21    23.591976     1.414894
6226.82    22.914078     2.014158
6227.43    15.718661     1.892258
6228.03    14.895020     3.334785
6228.64    13.459800     3.909276
6229.25    12.315022     2.963577
6229.86    21.340464     2.990951
6230.46    20.555305     2.657160
6231.07    13.620075     1.722848
6231.68    14.519802     1.031075
6232.28    20.624357     1.258482
6232.89    20.465721     3.308149
6233.50    14.338547     5.028773
6234.10    13.126936     4.082649
6234.71    18.639233     4.789778
6235.32    22.409584     4.257025
6235.93    20.070843     1.056490
6236.53    17.959246     0.957709
6237.14    15.352399     4.141215
6237.75    17.275646     5.907906
6238.35    24.036373     3.410095
6238.96    18.243429     2.318658
6239.57    24.475323     1.343939
6240.18    40.139442     1.114354
6240.78    27.336637     5.544968
6241.39    12.748830     8.394790
6242.00    12.180237     7.466627
6242.60    17.851807     5.177404
6243.21    14.409081     4.191556
6243.82    11.753815     3.698544
6244.43    18.364517     2.884080
6245.03    27.055035     2.123809
6245.64    20.030037     1.865507
6246.25    18.357689     2.168840
6246.85    28.963766     2.985096
6247.46    22.127579     3.983945
6248.07    19.095161     3.310792
6248.68    20.373373     1.716034
6249.28    14.422814     1.054616
6249.89    16.547544     0.840374
6250.50    19.361305     1.361995
6251.10    15.558167     2.007583
6251.71    11.972126     1.360552
6252.32    19.993452     0.192009
6252.93    24.111841     0.279918
6253.53    16.220150     1.907605
6254.14    19.036968     2.866579
6254.75    20.575132     3.024095
6255.35    16.324427     3.016059
6255.96    14.847423     3.059472
6256.57    16.666134     2.645709
6257.18    18.583597     3.880224
6257.78    20.112465     4.934059
6258.39    22.929298     1.586112
6259.00    20.487324     2.337454
6259.60    12.444118     5.647958
6260.21     8.528963     5.225226
6260.82    20.157078     2.049036
6261.43    25.101851     0.973193
6262.03    16.507359     2.114411
6262.64    10.073366     2.069442
6263.25    14.142149     1.932932
6263.85    21.443007     2.080129
6264.46    22.953150     3.042477
6265.07    19.387005     5.001380
6265.68    21.174026     3.318941
6266.28    24.024647     0.624725
6266.89    21.234247     0.942810
6267.50    20.558081     1.016966
6268.10    18.108139     1.226324
6268.71    14.854201     2.150771
6269.32    17.041132     2.955055
6269.92    21.041059     2.628918
6270.53    21.411552     1.562664
6271.14    17.936308     1.003062
6271.75    15.264820     1.729359
6272.35    10.775262     2.259351
6272.96     7.827016     3.600230
6273.57    11.349292     5.117435
6274.17    17.652044     1.941546
6274.78    14.757051     2.097945
6275.39    11.736511     5.164385
6276.00    23.707550     3.533803
6276.60    28.348568     1.939770
6277.21    26.060703     2.403208
6277.82    22.823299     2.977298
6278.42    16.624203     1.371860
6279.03    13.910024     1.392106
6279.64    15.814656     3.833517
6280.25    18.809074     5.957164
6280.85    20.137888     4.957237
6281.46    19.369480     3.019055
6282.07    19.223640     1.840377
6282.67    19.735481     1.764156
6283.28    13.131409     3.600834
6283.89    15.622214     3.271108
6284.50    23.965405     2.098613
6285.10    16.020041     5.501822
6285.71    20.582550     4.568502
6286.32    24.918819     3.331564
6286.92    15.225195     6.868905
6287.53    17.260595     7.963564
6288.14    22.614241     4.393933
6288.75    22.470154     2.164008
6289.35    17.818020     5.587497
6289.96    13.402478     6.163202
6290.57    17.300117     3.586052
6291.17    21.740238     2.023447
6291.78    13.117013     4.202151
6292.39     8.933806     6.937564
6293.00    13.261931     5.981667
6293.60    16.984768     2.984909
6294.21    12.723794     3.965111
6294.82    14.559543     2.333724
6295.42    19.910313     1.524529
6296.03    19.207514     5.732432
6296.64    17.262205     6.924628
6297.25    20.996571     7.799760
6297.85    23.537487    12.119176
6298.46    16.237919    18.299633
6299.07    12.570934    19.855368
6299.67    13.883348    20.900038
6300.28    14.951663    23.077785
6300.89    14.284589    21.298628
6301.50    19.560986    15.252839
6302.10    20.850887     9.113740
6302.71    13.998447     5.999352
6303.32    14.569584     4.554412
6303.92    22.693552     2.859370
6304.53    25.010981     3.876754
6305.14    17.375488     7.046489
6305.74    18.803200     3.239450
6306.35    22.385248     3.352683
6306.96    21.629230     5.807631
6307.57    18.626783     2.186665
6308.17    15.653646     4.623038
6308.78    18.079865     4.877481
6309.39    20.773106     0.833783
6309.99    14.329708     1.870249
6310.60    13.026464     0.616627
6311.21    15.923985     0.963151
6311.82    18.056452     4.002415
6312.42    20.586994     1.033089
6313.03    15.865286    -0.090159
6313.64    14.042415     1.278759
6314.24    21.697742     1.052642
6314.85    21.266579     0.133707
6315.46    15.907890     0.317580
6316.07    17.626396     1.103816
6316.67    26.653658     1.041596
6317.28    21.806145     0.842865
6317.89    17.172535     1.423783
6318.49    17.711823     1.988867
6319.10    14.070137     1.203616
6319.71    17.769175     0.621870
6320.32    21.750671     1.736869
6320.92    19.810740     2.991632
6321.53    17.090429     1.986678
6322.14    12.627289     3.328403
6322.74    11.490117     3.342086
6323.35    15.008491     0.999896
6323.96    15.024977     3.319133
6324.57    11.427557     3.556504
6325.17    10.492818     3.503197
6325.78    13.888424     5.975957
6326.39    13.668979     3.961794
6326.99    16.455482     3.023918
6327.60    20.338318     4.113914
6328.21    17.685837     3.235861
6328.82    12.972700     1.326287
6329.42    19.214134     1.564209
6330.03    25.584160     3.136169
6330.64    15.414115     3.032480
6331.24    14.749285     3.156560
6331.85    17.136137     2.404457
6332.46    14.835888     0.907762
6333.07    15.398233     0.890079
6333.67    18.151089     1.201336
6334.28    18.629757     0.620476
6334.89    18.096415     0.016849
6335.49    21.727617     1.428485
6336.10    19.142548     2.950947
6336.71    13.530847     2.584232
6337.32    12.983838     1.006900
6337.92    16.155670     0.980843
6338.53    16.926809     0.689149
6339.14    13.871887     1.660858
6339.74    10.152649     3.985245
6340.35     9.323727     2.033634
6340.96    11.857409     0.546902
6341.56    15.988342     1.161433
6342.17    18.109444     1.880198
6342.78    15.361478     3.330685
6343.39    17.193964     4.483504
6343.99    22.714252     3.591053
6344.60    22.506710     1.164593
6345.21    18.367521     1.580358
6345.81    17.123676     1.695149
6346.42    16.443857     1.070737
6347.03    11.308426     2.693242
6347.64    13.437019     3.393336
6348.24    11.290551     2.419433
6348.85     6.162235     2.121602
6349.46    13.650594     3.911554
6350.06    14.145474     2.719966
6350.67    11.794447     2.557306
6351.28    12.997881     3.936119
6351.89    12.365780     0.772888
6352.49    17.484835    -0.183818
6353.10    21.339493     1.876327
6353.71    17.854502     2.980960
6354.31    14.021881     1.304975
6354.92    11.313424     1.670967
6355.53    13.772593     3.521674
6356.14    20.000000     4.000000
6356.74    20.020060     3.329142
6357.35    16.746738     2.429920
6357.96    12.638235     1.884360
6358.56    10.923897     1.983721
6359.17    16.396069     2.759967
6359.78    17.979990     3.222592
6360.39    19.265974     4.680662
6360.99    24.026461     6.965468
6361.60    18.666498     5.763608
6362.21    18.530064     4.544232
6362.81    20.320929     5.358964
6363.42    10.175160     8.546490
6364.03    -2.376863    14.443043
6364.64     3.577347    11.837769
6365.24    16.702667     3.335238
6365.85    15.392757     0.055612
6366.46    13.436458     0.665515
6367.06    15.740951     0.750730
6367.67    16.513178    -0.088562
6368.28    13.773661     0.001889
6368.89    19.558434    -0.189457
6369.49    17.997389     0.768579
6370.10    10.157907     2.131553
6370.71    11.516034     2.016745
6371.31    14.835045     2.137980
6371.92    20.301922     1.433893
6372.53    25.581287     1.196285
6373.14    24.692501     2.917722
6373.74    18.897512     1.904560
6374.35    17.232025     0.609013
6374.96    19.017450     1.177610
6375.56    16.548363     2.002336
6376.17    13.497789     1.560287
6376.78    10.377135     3.597947
6377.38     9.149353     6.012794
6377.99    12.327581     3.499783
6378.60    15.774650     1.519623
6379.21    17.815399     0.473555
6379.81    17.826859     0.044693
6380.42    16.837469     0.881366
6381.03    19.523247     1.091625
6381.63    21.263103     0.983989
6382.24    19.704735     0.984591
6382.85    18.180422     0.944475
6383.46    17.197170     1.588383
6384.06    13.955900     2.290054
6384.67    10.884995     3.227094
6385.28    13.282009     4.179517
6385.88    16.412766     1.746399
6386.49    10.593108     1.906620
6387.10     6.895435     3.996220
6387.71    18.843891     1.480583
6388.31    17.365160    -0.128411
6388.92    16.318272     0.552654
6389.53    19.805471     2.317631
6390.13    14.501675     3.865582
6390.74    15.902062     3.848951
6391.35    18.837709     1.601184
6391.96    17.676107     0.035666
6392.56    16.797173     1.778459
6393.17    19.700493     2.134698
6393.78    20.914846     2.143675
6394.38    15.396979     1.722319
6394.99     7.393369     0.024468
6395.60    10.299596     1.373782
6396.21    17.607960     1.658679
6396.81    19.819504     1.202537
6397.42    16.407257     2.968818
6398.03    15.063883     1.525102
6398.63    18.180487     1.723334
6399.24    19.601974     2.890789
6399.85    14.544340     1.087150
6400.46    11.227261     1.724314
6401.06    11.666622     1.426495
6401.67    15.022400     1.436034
6402.28    18.010052     3.954970
6402.88    15.268486     2.095034
6403.49    13.751643     0.473720
6404.10    15.512709     1.292290
6404.71    16.947393     1.999970
6405.31    17.615988     1.365608
6405.92    18.912758     0.653655
6406.53    18.304125     1.457289
6407.13    13.195068     2.987529
6407.74     7.531893     2.281349
6408.35     9.158778     2.077587
6408.95    14.364980     1.553265
6409.56    16.000092    -0.000396
6410.17    14.874418     0.771828
6410.78    11.777267     0.662164
6411.38    11.756750    -0.191218
6411.99    12.885118     0.020785
6412.60     7.680000     0.782322
6413.20    15.156540     1.472418
6413.81    18.539385     2.473300
6414.42     9.692065     2.949931
6415.03    12.043747     1.338641
6415.63    13.409149     0.798785
6416.24    13.361864     1.064065
6416.85    15.153090     0.991718
6417.45    14.664641     0.990403
6418.06    10.505962     1.027778
6418.67    12.394196     0.933943
6419.28    19.868013     1.074309
6419.88    21.314228     1.867706
6420.49    18.026808     2.322395
6421.10    14.170362     1.200008
6421.70    11.540391     1.492309
6422.31    10.796434     4.854732
6422.92    14.325032     3.339818
6423.53    17.006500     1.061119
6424.13    15.091107     1.147896
6424.74    11.145483     1.954359
6425.35    11.280007     2.214192
6425.95    13.132850     1.334131
6426.56    16.208158     1.256717
6427.17    19.972267     2.011511
6427.78    19.290560     0.115339
6428.38    14.310474     1.663646
6428.99     9.927872     2.535795
6429.60    11.199276    -0.034683
6430.20    17.623957     1.466767
6430.81    20.209692     2.360524
6431.42    20.031942     1.699816
6432.03    19.897617     0.908278
6432.63    17.070391     0.673732
6433.24    11.207485     3.265107
6433.85     8.725623     3.112386
6434.45    10.136050     0.987188
6435.06     9.995605     2.830649
6435.67    11.468795     2.101016
6436.28    18.655079    -0.044320
6436.88    22.592520     0.536703
6437.49    14.707897     3.817765
6438.10     9.472654     4.311808
6438.70    13.726564     3.620847
6439.31    18.399137     2.551214
6439.92    15.057502     1.011148
6440.53    11.894101     0.902099
6441.13    14.105188     1.057534
6441.74    13.664563     0.964911
6442.35     8.911677     1.012090
6442.95    11.288605     1.114064
6443.56    12.107272     0.276017
6444.17    10.052200     0.280140
6444.77    10.384828     0.991359
6445.38    13.908458     0.131085
6445.99    12.095016    -0.086551
6446.60    18.104866    -0.018050
6447.20    23.137518     0.080689
6447.81    11.739011     0.899377
6448.42    11.266657     1.888034
6449.02    14.263732     1.653746
6449.63    15.609458     0.830403
6450.24    16.033876     0.992642
6450.85    10.540677     1.890139
6451.45    13.413308     1.620693
6452.06    17.100019     0.732312
6452.67    13.831845     1.100442
6453.27    14.431482     2.794105
6453.88    16.596842     2.639878
6454.49    13.711833     1.569184
6455.10    11.479768     0.878425
6455.70    17.627232     0.093909
6456.31    15.407024    -0.258598
6456.92    15.003223     0.804930
6457.52    16.663158     2.255567
6458.13    13.973179     2.056509
6458.74    18.387928     0.380594
6459.35    20.352024     0.148962
6459.95    16.123840     1.530505
6460.56    13.043037     1.949202
6461.17    17.085489     0.196106
6461.77    18.213482     0.860306
6462.38    15.865438     2.695189
6462.99    12.308025     4.334018
6463.60     8.193840     6.071890
6464.20     9.916914     3.547444
6464.81    14.558146     0.993280
6465.42    19.185833     1.229815
6466.02    21.119724     2.005386
6466.63    15.078329     1.164680
6467.24    11.551913     1.462882
6467.85    12.423059     1.934402
6468.45    16.462170     0.940359
6469.06    23.446226     0.730329
6469.67    13.910753     2.709852
6470.27     8.024343     4.723103
6470.88    16.444487     4.917720
6471.49    19.506636     4.082834
6472.10    11.892475     3.869107
6472.70    12.257141     4.214482
6473.31    13.631087     3.629896
6473.92     5.044763     2.012260
6474.52     7.816515     1.873455
6475.13     8.735966     2.158785
6475.74    11.319595     1.697468
6476.35    17.121145     0.965243
6476.95    12.975325     1.007913
6477.56    10.042227     0.813196
6478.17    10.219501     1.734962
6478.77     9.641992     3.198227
6479.38     8.852436     3.050978
6479.99    12.744819     2.196112
6480.59     9.921806     1.977462
6481.20     9.828892     1.864934
6481.81    18.258287     0.932333
6482.42    16.916929     0.000730
6483.02    14.242064     0.667500
6483.63    14.245188     0.748605
6484.24    15.125066    -0.041591
6484.84    15.086905     0.825610
6485.45    14.384584     2.575369
6486.06    17.672680     2.932434
6486.67    21.787498     1.376916
6487.27    19.863665    -0.003262
6487.88    14.723025     0.845488
6488.49    20.880049     0.560659
6489.09    22.141439    -0.190516
6489.70    17.248400     0.077129
6490.31    23.720306     0.848461
6490.92    18.421043     2.021849
6491.52     9.315653     1.048799
6492.13     7.176636     0.074178
6492.74    11.059834     0.999081
6493.34    14.517006     0.015684
6493.95     9.428199     1.262463
6494.56    11.014231     1.545885
6495.17    18.052826    -0.066266
6495.77    13.854696     0.881221
6496.38    21.896980     1.359132
6496.99    23.521479     3.977177
6497.59    16.411251     6.069812
6498.20    15.000387     3.962900
6498.81    14.577538     2.679801
6499.42    11.518279     5.147875
6500.02    12.760090     5.052079
6500.63    20.246376     1.666746
6501.24    23.455597     1.867794
6501.84    15.684718     2.779197
6502.45    17.075108     3.153136
6503.06    20.057039     2.808013
6503.67     9.609165     3.061265
6504.27     3.446924     5.626211
6504.88    10.536059     5.400233
6505.49    15.880548     2.637923
6506.09    12.167694     2.446661
6506.70    11.545101     5.070608
6507.31    20.336494     1.092837
6507.92    23.282866     1.191337
6508.52    17.815729     2.710076
6509.13    13.943195    -0.121252
6509.74    16.245928     0.567857
6510.34    18.779213     2.529277
6510.95    15.159103     2.873140
6511.56    10.641140     1.701722
6512.17    11.972350     0.997109
6512.77    11.524070     1.698890
6513.38    15.050290     2.323736
6513.99    13.811337     1.414299
6514.59     7.870658     1.235226
6515.20    12.306091     3.907660
6515.81    14.138179     2.067526
6516.41    14.199313     0.957618
6517.02    13.406646     2.359552
6517.63    13.090353     3.013233
6518.24    18.220062     3.226904
6518.84    11.427197     1.612090
6519.45     9.925284     1.366834
6520.06    14.664766     3.373549
6520.66     8.167850     4.051085
6521.27    13.029703     2.523595
6521.88    19.264549     1.700302
6522.49    17.297667     2.304288
6523.09    14.128683     3.057755
6523.70    18.602207     3.100008
6524.31    16.627312     2.225651
6524.91    11.238836     2.147614
6525.52    12.456161     1.516815
6526.13    18.022240     0.004982
6526.74    15.296854     1.750096
6527.34    18.311485     1.054132
6527.95    24.337883    -0.392885
6528.56    22.815418     0.217941
6529.16    15.300898     1.003165
6529.77    14.655419     0.650338
6530.38    14.461739     2.942494
6530.99    14.483000     3.305634
6531.59    16.029745     0.981809
6532.20    14.362751     3.555633
6532.81    12.529589     5.346619
6533.41    15.233727     3.572114
6534.02    14.307386     3.935120
6534.63     9.046440     6.980715
6535.24    16.910269     3.525305
6535.84    22.942226     3.923613
6536.45    14.841910     5.104730
6537.06     6.775671     3.575431
6537.66    14.871259     2.020134
6538.27    21.311670     0.880979
6538.88    15.777582     2.336605
6539.49    11.693298     2.524042
6540.09    14.229087     0.865145
6540.70    13.936327     1.028032
6541.31    17.552689     0.022537
6541.91    25.058914     1.282059
6542.52    20.429060     3.835663
6543.13     9.861784     3.774019
6543.74    19.525618     1.238373
6544.34    25.653154     0.736297
6544.95    21.480402     1.402631
6545.56    15.449883     2.452044
6546.16    13.990435     2.925436
6546.77    14.730019     1.173465
6547.38    16.143356     1.788517
6547.99    14.688291     4.803250
6548.59    14.909403     5.707662
6549.20    19.054049     2.902918
6549.81    17.982613     1.204547
6550.41    20.324961     0.661182
6551.02    19.101894     1.998641
6551.63    14.263620     4.655381
6552.23    14.000136     6.000642
6552.84    13.725314     4.557950
6553.45    16.191113     2.891647
6554.06    19.085995     3.930039
6554.66    20.182585     4.733391
6555.27    19.153515     2.066005
6555.88    14.262396     1.956024
6556.48    17.285744     1.347332
6557.09    17.020592     1.370639
6557.70    11.896093     1.828492
6558.31    16.659523     0.054511
6558.91    19.023685     0.672030
6559.52    18.431845     1.049327
6560.13    15.257857     1.266409
6560.73    11.700730     2.067163
6561.34    12.718886     2.800511
6561.95    15.836379     5.700949
6562.56    14.161497     4.235566
6563.16    13.995211     1.349278
6563.77    17.014685     2.263183
6564.38    14.230119     3.924771
6564.98    14.427009     3.505843
6565.59    15.641606     2.192277
6566.20    18.713284     2.340686
6566.81    20.662394     2.915065
6567.41    14.581645     1.913836
6568.02    13.354321     3.952735
6568.63    14.816353     1.666250
6569.23    14.773770     1.019174
6569.84    13.944752     5.151080
6570.45    14.707672     2.468808
6571.06    17.510731     0.158843
6571.66    17.152060     0.332839
6572.27    16.037987     1.361780
6572.88    17.029356     2.066002
6573.48    15.424847     2.103026
6574.09    11.776243     1.007641
6574.70    11.577362     2.058303
6575.31    15.928462     2.824073
6575.91    18.996521     2.076613
6576.52    15.589504     3.862201
6577.13    12.359499     3.520703
6577.73    16.908888     2.355660
6578.34    19.548498     1.880897
6578.95    15.791333     2.081547
6579.56    16.927711     2.922004
6580.16    15.314498     3.170424
6580.77    11.953747     2.430339
6581.38    13.708428     1.973593
6581.98    18.249754     1.921609
6582.59    14.738743     1.052212
6583.20     6.582677     1.004409
6583.81     5.727697     0.768702
6584.41     8.943423     1.734444
6585.02     8.827990     2.938786
6585.63     9.626909     1.123749
6586.23    17.169479     0.705797
6586.84    19.009069     1.839008
6587.45    15.601048     1.409405
6588.05    13.799349    -0.118629
6588.66    14.821215     0.899916
6589.27    18.493706     2.831600
6589.88    12.275749     2.131643
6590.48    10.295452     0.249298
6591.09    15.315866     0.219274
6591.70    13.975613     1.971452
6592.30    17.938240     2.977987
6592.91    12.770427     2.556965
6593.52     5.150135     1.412299
6594.13     7.851963     1.101922
6594.73    17.154739     2.015223
6595.34    18.518358     2.675557
6595.95     8.112463     4.689186
6596.55     7.015953     3.895014
6597.16    12.472463     1.704993
6597.77    11.081148     2.000363
6598.38    14.806327     1.193107
6598.98    12.471364     0.572462
6599.59    14.831132     2.510417
6600.20    15.280990     4.127512
6600.80     8.889691     2.822590
6601.41    12.811851     1.972430
6602.02     9.506755     2.807786
6602.63     8.368225     2.602015
6603.23    10.430012     1.832151
6603.84     9.899625     2.065956
6604.45    11.640158     2.051681
6605.05    17.433071     1.009965
6605.66     9.430477     2.076612
6606.27     4.017131     3.210227
6606.88     8.412754     3.009811
6607.48     7.989233     3.003834
6608.09    13.491194     1.466514
6608.70    17.333467    -0.076073
6609.30    12.064962     0.954232
6609.91    12.442013     1.809429
6610.52    22.030106    -0.085153
6611.13    12.667224    -0.149978
6611.73     8.996397     0.809791
6612.34    11.454544     0.874771
6612.95    11.606826     1.536418
6613.55     9.853969     3.081329
6614.16    10.716352     2.179688
6614.77    13.934629     0.324075
6615.38    11.467813     0.219846
6615.98    11.208238     1.712441
6616.59    13.761925     1.655071
6617.20    10.025122    -0.008809
6617.80    11.702872     2.502494
6618.41    11.300901     2.646924
6619.02    18.904457     1.844711
6619.63    21.993647     1.921663
6620.23    10.773943     0.906747
6620.84    16.300579    -0.053220
6621.45    14.188227     1.336428
6622.05    11.166688     2.368969
6622.66    14.838801     1.531532
6623.27    16.659586     1.121657
6623.87    12.998304     2.049635
6624.48    17.045574     0.111168
6625.09    16.262945     1.878380
6625.70    10.170116     2.268965
6626.30    10.087553    -0.339015
6626.91    17.153519     0.010949
6627.52    18.467432    -0.040012
6628.12    15.686315     0.658816
6628.73    19.457161     1.117171
6629.34    22.795292     0.956000
6629.95    17.202906     1.022234
6630.55    13.150448     1.036925
6631.16    13.809398     0.276571
6631.77    18.066137    -0.305622
6632.37    14.632444     0.747021
6632.98     8.979900     2.153114
6633.59    14.063313     1.998164
6634.20    14.273644     2.064080
6634.80    13.788278     1.312746
6635.41    14.563159     0.966417
6636.02    19.542437     0.850459
6636.62    20.999949     1.222979
6637.23     8.556852     3.025215
6637.84    11.732636     0.695618
6638.45    15.429179     0.154102
6639.05    11.934644     1.559989
6639.66     8.513266     2.074022
6640.27     9.062559     1.985108
6640.87    12.760940     1.188524
6641.48    20.077869     0.240979
6642.09    17.487074    -0.092595
6642.70    10.143454     0.093521
6643.30    10.343010     1.366861
6643.91    12.897523     3.056200
6644.52    13.261730     0.294345
6645.12    11.962392     1.912335
6645.73    10.040096     2.049078
6646.34    12.796553    -0.002280
6646.95    17.970520     2.128532
6647.55    12.619501     2.180806
6648.16    12.611290     0.532217
6648.77    16.062870    -0.396566
6649.37    14.328867     0.754277
6649.98    14.195803     2.058866
6650.59    22.992493     1.002233
6651.20    21.928972    -0.027454
6651.80    18.607176     0.797552
6652.41    17.740253     0.436743
6653.02    15.884159     0.452461
6653.62    11.348826     2.055055
6654.23     8.944009     1.067250
6654.84    12.051294     0.886991
6655.45    13.917654     1.384304
6656.05    14.144523     3.047817
6656.66    11.591361     3.817756
6657.27     8.074526     1.844617
6657.87    13.287968     0.974192
6658.48    15.783563     1.716249
6659.09    11.820429     2.162639
6659.69    10.657180     1.747178
6660.30    16.722982     0.663095
6660.91    22.063673     0.025656
6661.52    21.281658     1.816736
6662.12    21.739336     1.447151
6662.73    29.723722     0.838213
6663.34    28.900888     1.053429
6663.94    22.489101     0.977671
6664.55    30.959850     0.996590
6665.16    26.475471     1.129861
6665.77    31.098045     0.106812
6666.37    33.420380     0.863850
6666.98    31.020134     2.151991
6667.59    31.642168     2.086674
6668.19    28.010324     2.993250
6668.80    30.434168     2.206703
6669.41    22.981310     2.000477
6670.02    15.198635     1.599702
6670.62    13.156654     0.895729
6671.23     9.559992     1.008221
6671.84     7.906419     0.989366
6672.44    11.048841     1.131210
6673.05    13.195587     0.219378
6673.66    15.622257     0.503843
6674.27    18.658895     0.650897
6674.87    20.217518     0.223096
6675.48    22.027401     3.842680
6676.09    18.531013     2.562973
6676.69     8.860700     2.357793
6677.30     7.451753     3.056534
6677.91    12.852759     3.281203
6678.52    11.841920     3.923709
6679.12    10.232344     2.094711
6679.73     8.928199     2.737708
6680.34    15.691750     2.577317
6680.94    18.340557     1.801955
6681.55    10.618960     2.132479
6682.16     9.689630     1.902870
6682.77    21.524431     0.159697
6683.37    16.463781    -0.239662
6683.98    19.550611     0.741198
6684.59    27.485723     0.690804
6685.19    28.071821    -0.081135
6685.80    27.892088    -0.021672
6686.41    25.353672    -0.126481
6687.02    22.987576     1.765795
6687.62    24.086695     1.088025
6688.23    18.791962     2.647599
6688.84    14.803412     4.835918
6689.44    19.910511     1.775636
6690.05    13.386428     1.035500
6690.66    15.222692     0.256722
6691.27    14.363831    -0.230876
6691.87    13.581066     0.538701
6692.48    12.605680     0.837805
6693.09     8.004403    -0.024908
6693.69    11.044918     0.867398
6694.30     6.923617     2.113228
6694.91    13.263414     0.567196
6695.51    12.761198     0.722034
6696.12     7.110585     2.014289
6696.73    15.183776     0.903743
6697.34    19.114441     0.989552
6697.94    13.394297     0.968163
6698.55    10.587624     1.472276
6699.16     7.949447     2.765692
6699.76     6.274850     2.511310
6700.37    12.546933     0.875580
6700.98    19.019007     1.003897
6701.59    13.374628     0.179479
6702.19    17.765951    -0.143715
6702.80    14.413394     0.358522
6703.41    11.620769     1.598190
6704.01    18.240507     1.693473
6704.62    12.899737     0.001787
6705.23    11.019640     1.777513
6705.84    11.191712     1.470234
6706.44    14.891380     0.738432
6707.05    17.218121     1.390972
6707.66    15.640079     2.108923
6708.26    13.767982     1.966342
6708.87     9.429514     1.142403
6709.48     7.746562     0.038990
6710.09     9.505268     0.674996
6710.69    12.413335     0.599611
6711.30    12.396744     0.170732
6711.91     9.858137     0.976943
6712.51    10.881559     0.020700
6713.12    12.150591     0.741171
6713.73    10.440603     1.219289
6714.34    10.964151     0.586243
6714.94    11.568661     2.100161
6715.55    10.030911     3.815459
6716.16    13.022923     0.991710
6716.76    16.164789     1.704627
6717.37    11.962413     2.776384
6717.98     8.493514     3.338814
6718.59     7.327106     1.964712
6719.19     7.584341    -0.381732
6719.80    11.238357     0.138389
6720.41    13.640693     1.940972
6721.01    17.166937     1.239275
6721.62    12.994921     1.358833
6722.23    12.300660     2.663457
6722.84    14.832424     2.836284
6723.44    10.185470     1.870412
6724.05     8.904099     1.031469
6724.66    15.497188    -0.160237
6725.26    12.229267     2.224619
6725.87     9.641784     2.380360
6726.48    11.770996     0.340148
6727.09    15.499474     0.001890
6727.69    21.136074    -0.018005
6728.30    17.817976    -0.096744
6728.91     9.977888     1.533168
6729.51     5.718359     2.317075
6730.12    11.202959     1.388215
6730.73    16.371290     1.242855
6731.33    13.716912     1.963506
6731.94    13.993823     1.007629
6732.55    13.325966     1.085893
6733.16    11.161865     0.035067
6733.76     7.873025     1.212409
6734.37     7.628699     1.420228
6734.98     8.879209     0.012813
6735.58     8.120700     1.001015
6736.19    10.898160     0.030675
6736.80     9.558762     0.781487
6737.41     8.950807     0.931822
6738.01    12.041328     1.674647
6738.62    11.920134     1.392429
6739.23     8.968234     0.086548
6739.83    12.091091     2.039814
6740.44    13.287089     2.124506
6741.05     9.847406     1.236695
6741.66     9.500016     0.792562
6742.26    12.548389     1.520567
6742.87    14.265510     1.859730
6743.48    15.341403     0.909988
6744.08    17.040037     0.989007
6744.69    14.486708     1.136559
6745.30    21.619328     0.055827
6745.91    18.215538     1.046534
6746.51    12.518793     1.991738
6747.12    15.198314     0.582117
6747.73    12.713030     0.055886
6748.33    11.050310     0.991197
6748.94    11.404546     0.172426
6749.55    14.339787     0.396705
6750.16    10.408280     1.860965
6750.76    12.476081     1.340510
6751.37    20.041803    -0.021845
6751.98    13.725017     1.052798
6752.58    14.743854     1.029945
6753.19    15.858237     0.957400
6753.80    16.741863     1.100246
6754.41    16.562891     0.585528
6755.01    13.503114    -0.259468
6755.62     9.152568     0.340225
6756.23     8.107394     2.025189
6756.83    14.024698     1.194485
6757.44    19.540003     0.042959
6758.05    13.012098     0.553853
6758.66    11.250575     1.261477
6759.26    10.927766     2.950791
6759.87     5.064883     3.521368
6760.48    12.189400    -0.024344
6761.08    15.147730     1.828006
6761.69    12.276139     0.664408
6762.30     8.722571    -0.319716
6762.91     8.209159     0.400964
6763.51     9.260589     1.419734
6764.12    10.374817     1.936471
6764.73    13.047762     0.985685
6765.33    13.435499     0.940408
6765.94     8.452899     1.191728
6766.55     6.146569     0.095387
6767.15     8.736776     1.022707
6767.76    14.207152     1.516456
6768.37    14.977533     0.134042
6768.98     6.908840     2.003749
6769.58     8.633615     0.195044
6770.19     9.342371     0.571078
6770.80    14.031898     1.331529
6771.40    15.115496     0.259785
6772.01    13.035946     0.628137
6772.62    13.689154     1.866207
6773.23     9.876195    -0.028571
6773.83     8.106760     0.855534
6774.44     7.265049     1.136067
6775.05     6.557842     0.774667
6775.65     8.694135     1.743227
6776.26    11.963956     1.297127
6776.87    11.477126     0.249639
6777.48    10.122458     3.126853
6778.08    13.929681     3.178394
6778.69    10.775462     1.196489
6779.30    11.295044     1.735956
6779.90    14.447779     1.151325
6780.51    12.296479    -0.218839
6781.12     8.651265    -0.027214
6781.73    11.456591     0.095159
6782.33    15.920668     1.894380
6782.94    13.734149     2.249076
6783.55    12.096759     0.627765
6784.15    11.558629    -0.343213
6784.76    10.540401     0.656802
6785.37     7.845752     2.509819
6785.98     4.998564     2.850705
6786.58     8.821906     1.028442
6787.19    13.790640     1.662229
6787.80    11.828094     3.143832
6788.40    11.999354     1.331927
6789.01    15.803735    -0.345146
6789.62    16.809912     0.109419
6790.23    14.561659    -0.058618
6790.83    11.935363     0.016020
6791.44    10.483973     0.988556
6792.05    17.208166     0.177726
6792.65    13.837423     0.517061
6793.26    11.482095     1.159775
6793.87    12.015172     0.900784
6794.48     9.008245     1.149811
6795.08    10.990089     2.067810
6795.69     8.197010     2.100104
6796.30     7.707329     0.206579
6796.90     9.245324     0.676735
6797.51    11.084699     0.541143
6798.12     9.705560     0.125365
6798.73     8.274396     1.402247
6799.33     9.958315     1.972727
6799.94     8.986415     1.010056
6800.55    12.130217     0.036853
6801.15     6.753608     0.554011
6801.76     5.494428     1.962772
6802.37    11.242525     1.047060
6802.97    14.427974     0.138913
6803.58    10.543571     0.972337
6804.19     6.067989    -0.044489
6804.80    12.388138    -0.004132
6805.40    14.818820     0.393284
6806.01     2.748169     4.281447
6806.62     8.577644     3.101080
6807.22    12.713499     0.892000
6807.83     8.658580     2.086352
6808.44    16.838148     0.738979
6809.05     7.987622     0.001994
6809.65    10.744279     1.750617
6810.26     7.656588     2.338103
6810.87    10.343307     0.616006
6811.47    13.362543     0.193119
6812.08     8.875081     1.459562
6812.69     7.720314     2.103148
6813.30    12.156407     1.926749
6813.90    10.129786     1.022466
6814.51    10.213618     1.047488
6815.12    15.307743     0.281794
6815.72    13.218270    -0.055392
6816.33     8.321424    -0.105770
6816.94    10.588994     0.414895
6817.55    15.779725     2.420642
6818.15    18.121367     2.910435
6818.76    18.490088     0.135494
6819.37    10.692940     0.743986
6819.97    14.309558     0.852144
6820.58    13.032476     2.271237
6821.19    11.017905     2.325318
6821.80    11.479258     1.121081
6822.40     7.649443     1.851005
6823.01    17.082973    -0.006671
6823.62    14.731531     1.682163
6824.22    10.707731     3.122447
6824.83     8.982944     1.716151
6825.44    13.841446     0.805017
6826.05    16.785549     1.020125
6826.65    13.245418     1.098247
6827.26    11.728410     2.231894
6827.87     9.998757     3.988160
6828.47     9.829484     4.803940
6829.08     1.484742     6.197276
6829.69     8.419739     3.556512
6830.30    12.214300     1.555881
6830.90     9.147076     2.155658
6831.51    10.577216     1.891102
6832.12     6.758793     2.130319
6832.72     8.874416     3.017877
6833.33    13.102350     1.775489
6833.94     8.825243     5.787234
6834.55    11.046531     6.967617
6835.15    15.434195     5.097510
6835.76    14.272202     2.895974
6836.37    12.760250     0.729407
6836.97    11.809342     1.079519
6837.58    10.017517     1.960158
6838.19    11.423816     3.052970
6838.79    13.983689     1.526404
6839.40     7.038709     0.847292
6840.01     8.712678     0.937876
6840.62    14.068274     1.382488
6841.22     8.929115     1.917101
6841.83     6.719984     2.261027
6842.44     4.043181     4.992237
6843.04     5.763975     2.491139
6843.65    14.947985     1.114600
6844.26    11.393961     0.382259
6844.87     8.210545    -0.112338
6845.47     9.500854     0.055662
6846.08     6.627987    -0.071155
6846.69     8.402111     0.107063
6847.29    10.991831     1.000381
6847.90     9.401031     0.109732
6848.51     7.754312     0.049846
6849.12     9.768602    -0.463265
6849.72     7.940855     2.178159
6850.33     6.477340     3.709632
6850.94     7.602619     1.753047
6851.54     4.865044     1.957528
6852.15     7.025156     0.994748
6852.76     9.856084     0.950726
6853.37     9.385222     1.143896
6853.97     8.313422     0.192213
6854.58     7.586189     0.530872
6855.19     9.244501     0.750817
6855.79     8.883611    -0.119237
6856.40     6.368269    -0.005253
6857.01    12.161324     0.020204
6857.62    12.276443     0.934765
6858.22     8.863729     1.043249
6858.83     6.320249     0.989565
6859.44    10.694689     1.138491
6860.04    12.273427     3.706895
6860.65     9.879463     4.219667
6861.26    11.008356     2.219012
6861.87    12.412377     5.062980
6862.47    18.064186     3.128949
6863.08    10.420677     3.298118
6863.69     9.239747     7.724590
6864.29    14.421009     4.548081
6864.90    12.800800     1.874926
6865.51     9.899845     2.871317
6866.12     8.835214     2.120792
6866.72     3.892063     2.929339
6867.33     6.969582     1.019797
6867.94     5.676392     0.853174
6868.54     1.171314     1.924874
6869.15     4.145877     1.375251
6869.76     6.136030     1.008621
6870.36     7.437913     0.574724
6870.97    10.103736     0.135846
6871.58     5.905290     1.087834
6872.19     3.169289     0.998352
6872.79    10.692316     1.034360
6873.40     7.338441     0.201555
6874.01     4.489496    -0.223394
6874.61     6.732387     0.779784
6875.22     8.565643     0.423476
6875.83     7.063097     0.614442
6876.44     6.467604     1.850406
6877.04     9.017516    -0.120600
6877.65     6.103667    -0.002899
6878.26     3.940401    -0.127357
6878.86     6.052619     1.586470
6879.47     8.634056     1.726996
6880.08     8.824861    -0.002353
6880.69     9.968360     1.159634
6881.29    10.459920     2.995808
6881.90     7.809062     2.034769
6882.51     9.084936     2.994136
6883.11     9.290610     1.209348
6883.72     3.934465    -0.162925
6884.33     3.287819     1.658995
6884.94     9.474896     0.876496
6885.54    12.334009     0.302355
6886.15    10.254860     0.782328
6886.76    10.362997     0.083167
6887.36    12.087968     1.029505
6887.97    10.052813     0.988697
6888.58     5.117606     2.867872
6889.19     8.192039     2.287693
6889.79     7.855196     1.993581
6890.40     7.566608     1.631614
6891.01     6.781736     3.488247
6891.61     3.092618     4.355220
6892.22     5.097723     0.379605
6892.83    10.059085     0.111608
6893.44     7.124971     1.955415
6894.04     7.721006     1.273091
6894.65     8.105029     0.157254
6895.26     8.284729    -0.055205
6895.86    10.228292     0.033596
6896.47     7.923145    -0.057425
6897.08     5.548420     0.155733
6897.69     9.070421     1.215495
6898.29     6.993701     1.991360
6898.90     8.960107     1.059237
6899.51     6.619596     1.554229
6900.11     6.022542     3.803674
6900.72     9.033402     2.710164
6901.33     2.964266     2.819395
6901.94     1.413310     3.701650
6902.54     9.686180     1.594287
6903.15     9.654456     0.904101
6903.76    17.004820    -0.002613
6904.36    10.896521    -0.100362
6904.97     7.868033     0.960010
6905.58     8.889964     0.184512
6906.18    12.596249     0.930037
6906.79    10.257870     2.464258
6907.40     5.320185     1.252862
6908.01     5.864128     0.071567
6908.61     5.148917     0.979578
6909.22     7.026449     0.000426
6909.83     3.909427     0.973456
6910.43     8.896095     0.031253
6911.04     7.753409     1.736034
6911.65     1.793505     4.031903
6912.26     2.417174     3.319842
6912.86     7.683019     1.451605
6913.47    10.177180     1.115015
6914.08     8.758814     2.050587
6914.68     6.953358     2.010677
6915.29     9.867124     1.945484
6915.90     8.037647     2.240149
6916.51    11.468843     0.545465
6917.11    11.407223     0.486948
6917.72     8.893420     0.578147
6918.33    14.398705     0.454121
6918.93    15.827493     2.005058
6919.54     5.435404     0.993568
6920.15     3.896794     1.972016
6920.76     6.489050     1.268422
6921.36     8.805924     0.049093
6921.97     8.368468     0.615147
6922.58     8.213826     1.014128
6923.18     6.775465     1.345633
6923.79     5.105161     2.097703
6924.40     7.388884     2.004464
6925.01     6.781732     1.971385
6925.61     3.050473     1.911118
6926.22     5.453934     3.993475
6926.83     7.484819     1.722117
6927.43    14.825991     1.451755
6928.04    10.930254     1.670557
6928.65     4.428757     0.913755
6929.26     7.379216     0.811458
6929.86     7.256930    -0.116530
6930.47     8.959261     0.043613
6931.08     6.134424     0.952979
6931.68     6.525897     1.128676
6932.29     9.286387     0.138598
6932.90    10.575135     0.517296
6933.51     8.280684     1.241860
6934.11     7.299594     0.547477
6934.72     9.632989     0.059281
6935.33     8.165850     1.297418
6935.93     3.980720     1.943280
6936.54     6.891197     0.078694
6937.15     6.045959     0.560467
6937.76     8.523880     2.975969
6938.36    12.287076     0.971071
6938.97     9.206076     0.842500
6939.58     7.762884     1.620951
6940.18     9.808064    -0.410037
6940.79     6.448497     0.342505
6941.40     4.922460     2.040896
6942.00     3.154914     1.964692
6942.61     1.513110     3.061716
6943.22     7.393189     0.895279
6943.83     8.671380    -0.690126
6944.43     5.117783     1.935601
6945.04     6.635876     2.086899
6945.65     8.750062    -0.132862
6946.25     7.156065     1.164775
6946.86     8.945410     0.973557
6947.47     6.066176     0.978216
6948.08     7.634031     1.774763
6948.68     8.151932     3.367929
6949.29     8.022004     5.259403
6949.90     7.713263     2.978234
6950.50     9.088943     3.660987
6951.11     9.208187     7.327448
6951.72     5.552967     4.141842
6952.33     7.383260     0.860241
6952.93    11.965226     0.942072
6953.54     8.717656     2.046314
6954.15     6.725978     0.523690
6954.75     8.386350    -0.283905
6955.36     8.859759     0.580749
6955.97     7.147470     1.090756
6956.58     7.870289     0.975410
6957.18    11.679414     1.007769
6957.79    13.003707     0.995456
6958.40    11.145540     0.995051
6959.00     6.429465     1.066407
6959.61     7.308959     0.232089
6960.22    14.188091    -0.138494
6960.83    10.945501     0.390265
6961.43     3.956986     1.711895
6962.04     6.837305     1.432500
6962.65     9.746054     0.028381
6963.25     5.741801     0.991375
6963.86     5.970525     0.004374
6964.47     6.848440     0.914504
6965.08     7.939943     0.343596
6965.68     7.580306    -0.371041
6966.29    10.194336     1.311839
6966.90     9.054976     1.438931
6967.50     6.019642    -0.448342
6968.11     8.188153     0.512617
6968.72     9.485375     1.915068
6969.33    14.973408     0.005359
6969.93    12.411413     1.742237
6970.54    11.415950     2.184486
6971.15     8.273527     1.445225
6971.75    11.076835     0.101155
6972.36    11.268561     0.955710
6972.97     8.029578     1.617721
6973.58     9.995846    -0.172541
6974.18     6.443420     1.295896
6974.79     3.990392     3.002207
6975.40     8.510979     1.151124
6976.00     9.802311     1.681634
6976.61    11.135186     2.171659
6977.22     4.505124     1.597297
6977.82     8.428426     0.157651
6978.43    13.319869     0.946260
6979.04     5.870164     3.013834
6979.65     9.918937     2.055996
6980.25     4.996910     2.997700
6980.86     8.548548     0.146886
6981.47     9.145703     1.562464
6982.07     9.442008     1.520067
6982.68     6.101019     0.797354
6983.29     3.832273     1.177301
6983.90     5.494782     0.576449
6984.50     6.220061     0.163773
6985.11     7.067926     0.965787
6985.72     8.016681    -0.001609
6986.32    10.825785     0.880546
6986.93     9.901325     1.154060
6987.54     5.757993     0.262480
6988.15     6.129607    -0.047129
6988.75     9.480145    -0.092310
6989.36     6.994282     0.377562
6989.97     6.574953     0.911411
6990.57    14.268661    -0.099149
6991.18     8.934193     0.006827
6991.79     5.048881     0.913097
6992.40     6.993438     1.152686
6993.00    10.860046     0.183837
6993.61     8.411462     0.452136
6994.22     5.176857     1.256377
6994.82     9.466624     0.558535
6995.43    10.784167     0.151228
6996.04     6.384480     0.999787
6996.65    13.002262    -0.008593
6997.25     5.759356    -0.147907
6997.86     4.783744     1.722941
6998.47     3.757617     1.531702
6999.07     7.650392     0.324276
6999.68     9.059582    -0.177421
7000.29     4.992123     0.388874
7000.90     7.169660     0.926036
7001.50    11.130932    -0.121509
7002.11    10.000090     0.001930
7002.72    11.857771     1.874798
7003.32    10.754759     1.424122
7003.93     7.813548    -0.035312
7004.54     6.477083     1.145121
7005.15     8.248284     1.893016
7005.75     8.191246     0.527784
7006.36     7.793647    -0.041322
7006.97    12.111586    -0.009349
7007.57     9.037488    -0.004977
7008.18     7.833605     0.878850
7008.79     9.753108     1.207109
7009.40     8.708076     0.039505
7010.00     3.877877     1.180320
7010.61     4.992365     1.597144
7011.22     7.807245     1.539270
7011.82     4.504011     2.870096
7012.43     6.501633     0.890296
7013.04    11.001886     1.002135
7013.64     7.953242     0.150893
7014.25    12.909252    -0.186778
7014.86    11.438169     0.781781
7015.47     7.628795     0.591424
7016.07     8.694572    -0.212846
7016.68     8.421419     0.275120
7017.29     5.463437     1.117447
7017.89     5.157908     0.937618
7018.50     8.819906     0.012061
7019.11    10.728557     0.748927
7019.72    12.160103     1.894199
7020.32     9.999915     1.575070
7020.93     9.311001     0.257601
7021.54     6.832627     0.379960
7022.14     2.713215     0.848776
7022.75     5.523554    -0.014836
7023.36     5.890587     1.056377
7023.97     2.112563     1.999433
7024.57     3.732766     1.763234
7025.18     3.210811     3.848892
7025.79     9.410431     1.824077
7026.39    13.018938    -0.443111
7027.00     8.058275     0.036222
7027.61     5.984865     0.210960
7028.22     7.050356     0.978907
7028.82     6.996148     0.003000
7029.43     8.837635    -0.028906
7030.04     8.941525     0.007650
7030.64    10.201970     0.034233
7031.25    11.422201    -0.146551
7031.86     7.013607     0.543194
7032.47     4.659979     0.684738
7033.07     8.076529     0.238877
7033.68     5.965583     2.030292
7034.29     7.047758     1.032098
7034.89     3.627708     1.762966
7035.50     2.595076     2.319232
7036.11     4.030581     0.632520
7036.72     6.426859     0.271365
7037.32     6.127729     1.195913
7037.93     3.718148     0.876938
7038.54     3.975060     1.161707
7039.14     5.050428     1.991613
7039.75    10.761499     0.131318
7040.36     8.028219     0.660953
7040.97     6.649289     1.289480
7041.57     6.915044     0.185943
7042.18     7.898739     0.778227
7042.79    11.118249     2.029203
7043.39    11.514465     0.720157
7044.00     7.839972    -0.017369
7044.61     7.934875     0.002056
7045.22     8.225579    -0.068485
7045.82     6.047071     0.704080
7046.43     3.482859     1.201316
7047.04     6.788996     0.495347
7047.64    10.481612    -0.048613
7048.25    10.262252    -0.098549
7048.86    10.720482     0.193876
7049.46     8.932948     1.998782
7050.07    16.551264     0.265114
7050.68    11.721338    -0.151455
7051.29     5.260219     0.103632
7051.89     6.268285    -0.187683
7052.50     5.913935     0.574178
7053.11     4.327500     0.548916
7053.71     5.757316     0.528359
7054.32     1.955549     5.024971
7054.93     2.740886     2.377362
7055.54     4.564379     1.096034
7056.14     6.362625     0.227338
7056.75     7.649729     0.442864
7057.36     8.193009     1.106986
7057.96     7.611174     1.046063
7058.57     7.180591     0.839077
7059.18     9.053801     0.007847
7059.79     9.051230     0.956907
7060.39     7.873238     0.808751
7061.00     2.884231     2.682451
7061.61     4.399149     1.553471
7062.21    10.640285    -0.431301
7062.82    11.461447     0.261811
7063.43     6.968950     1.279052
7064.04     4.028168     1.947113
7064.64     6.829682     0.077805
7065.25     6.399713     0.741027
