#Wavelength     Flux
#[Angstrom]   [Counts]
3932.25    1563.200000
3933.89    1035.786000
3935.52    1390.436000
3937.16    1377.193000
3938.79    1260.739000
3940.42    1349.175000
3942.06    1438.963000
3943.69    1038.379000
3945.32    1207.104000
3946.96    1277.650000
3948.59    887.705600
3950.23    1406.458000
3951.86    1185.105000
3953.49    1612.996000
3955.13    1405.999000
3956.76    1090.332000
3958.39    1074.191000
3960.03    1525.091000
3961.66    1158.167000
3963.30    1284.413000
3964.93    1619.055000
3966.56    1510.695000
3968.20    1477.001000
3969.83    1287.551000
3971.47    1405.763000
3973.10    1357.921000
3974.73    1395.791000
3976.37    1700.629000
3978.00    1084.997000
3979.64    1575.255000
3981.27    1489.635000
3982.90    1694.443000
3984.54    1566.278000
3986.17    1163.773000
3987.80    1391.684000
3989.44    1060.859000
3991.07    1271.577000
3992.71    1319.416000
3994.34    858.690000
3995.97    697.480000
3997.61    561.017900
3999.24    589.389000
4000.88    709.799300
4002.51    724.556200
4004.14    695.200900
4005.78    633.516100
4007.41    1320.526000
4009.04    921.172700
4010.68    1446.314000
4012.31    1459.508000
4013.95    1432.350000
4015.58    1548.310000
4017.21    1618.159000
4018.85    1737.080000
4020.48    1480.245000
4022.11    1736.370000
4023.75    1169.217000
4025.38    1170.229000
4027.02    1111.405000
4028.65    1151.502000
4030.28    1169.671000
4031.92    250.298000
4033.55    100.363800
4035.19    -383.716500
4036.82    -575.319800
4038.45    762.904500
4040.09    915.305700
4041.72    1226.122000
4043.36    1321.404000
4044.99    1285.730000
4046.62    1556.591000
4048.26    1922.947000
4049.89    2638.676000
4051.52    1987.107000
4053.16    1625.858000
4054.79    1715.252000
4056.43    1733.120000
4058.06    1716.977000
4059.69    1801.980000
4061.33    1985.684000
4062.96    1771.555000
4064.59    1801.266000
4066.23    2302.721000
4067.86    2214.128000
4069.50    1928.784000
4071.13    1894.529000
4072.76    1981.486000
4074.40    1795.714000
4076.03    1641.974000
4077.67    1926.025000
4079.30    2317.851000
4080.93    2249.280000
4082.57    1883.596000
4084.20    1569.412000
4085.84    1738.545000
4087.47    1956.342000
4089.10    2474.517000
4090.74    2557.413000
4092.37    1906.269000
4094.01    1852.588000
4095.64    2019.378000
4097.27    2288.587000
4098.91    2154.065000
4100.54    1889.276000
4102.17    2086.619000
4103.81    2138.237000
4105.44    2055.911000
4107.07    2171.511000
4108.71    1825.572000
4110.34    1683.631000
4111.98    1730.979000
4113.61    1864.012000
4115.24    2028.775000
4116.88    1957.647000
4118.51    2211.478000
4120.15    2277.553000
4121.78    2041.332000
4123.41    1954.760000
4125.05    1807.542000
4126.68    1741.605000
4128.31    1928.734000
4129.95    1803.066000
4131.58    1975.883000
4133.22    2049.518000
4134.85    1999.287000
4136.48    2042.824000
4138.12    1894.114000
4139.75    1779.109000
4141.39    1929.530000
4143.02    1799.464000
4144.65    1746.610000
4146.29    2129.020000
4147.92    2322.114000
4149.56    2427.415000
4151.19    2368.528000
4152.82    2187.794000
4154.46    2435.306000
4156.09    2360.587000
4157.73    2303.216000
4159.36    2247.321000
4160.99    2393.553000
4162.63    2409.063000
4164.26    2145.226000
4165.89    2101.473000
4167.53    1659.630000
4169.16    1750.377000
4170.80    1958.942000
4172.43    2038.313000
4174.06    1710.855000
4175.70    1769.849000
4177.33    2230.978000
4178.97    2120.675000
4180.60    2115.126000
4182.23    2187.012000
4183.87    2103.733000
4185.50    2241.513000
4187.13    2138.566000
4188.77    2193.813000
4190.40    2396.535000
4192.04    2544.854000
4193.67    2392.162000
4195.30    2127.018000
4196.94    2401.675000
4198.57    2254.182000
4200.20    1862.810000
4201.84    1827.442000
4203.47    1866.341000
4205.11    2131.310000
4206.74    2226.494000
4208.37    2032.045000
4210.01    1852.012000
4211.64    2075.897000
4213.27    2061.457000
4214.91    2157.896000
4216.54    2008.922000
4218.18    2063.943000
4219.81    2064.375000
4221.44    2076.974000
4223.08    2147.793000
4224.71    1984.661000
4226.35    1933.316000
4227.98    2230.056000
4229.61    2180.492000
4231.25    2168.382000
4232.88    2276.944000
4234.52    2091.454000
4236.15    2089.279000
4237.78    2386.746000
4239.42    2168.057000
4241.05    1895.966000
4242.69    1914.094000
4244.32    1884.921000
4245.95    1981.426000
4247.59    2000.255000
4249.22    1834.726000
4250.85    2124.781000
4252.49    2152.333000
4254.12    2161.719000
4255.76    2232.690000
4257.39    2196.763000
4259.02    2308.632000
4260.66    1999.770000
4262.29    2156.358000
4263.93    2148.640000
4265.56    2031.645000
4267.19    2033.758000
4268.83    1942.194000
4270.46    1889.013000
4272.09    1829.129000
4273.73    1841.232000
4275.36    2330.677000
4277.00    2676.403000
4278.63    2365.299000
4280.26    2577.163000
4281.90    2468.360000
4283.53    2102.556000
4285.16    1904.504000
4286.80    2106.492000
4288.43    2176.089000
4290.07    2208.444000
4291.70    2333.191000
4293.33    2306.528000
4294.97    1891.558000
4296.60    1735.550000
4298.24    1863.544000
4299.87    1968.754000
4301.50    2084.813000
4303.14    2446.296000
4304.77    2454.309000
4306.40    2195.985000
4308.04    2206.842000
4309.67    2235.384000
4311.31    2227.614000
4312.94    2306.087000
4314.57    2380.182000
4316.21    2165.640000
4317.84    1917.899000
4319.48    2220.976000
4321.11    2407.663000
4322.74    2263.380000
4324.38    2212.416000
4326.01    2493.065000
4327.65    2293.067000
4329.28    2366.380000
4330.91    2427.861000
4332.55    2161.074000
4334.18    2163.662000
4335.81    2381.175000
4337.45    2480.787000
4339.08    2363.017000
4340.72    2112.139000
4342.35    2005.977000
4343.98    2077.922000
4345.62    2151.101000
4347.25    2376.423000
4348.89    2335.099000
4350.52    2183.256000
4352.15    2054.522000
4353.79    2099.553000
4355.42    2092.476000
4357.05    1971.497000
4358.69    2134.412000
4360.32    1975.962000
4361.96    1911.587000
4363.59    2098.361000
4365.22    2104.794000
4366.86    2089.034000
4368.49    1989.286000
4370.12    2015.314000
4371.76    1774.142000
4373.39    1453.983000
4375.03    1527.657000
4376.66    1766.635000
4378.29    1793.304000
4379.93    1676.933000
4381.56    1616.568000
4383.20    1804.010000
4384.83    2102.890000
4386.46    2033.681000
4388.10    2312.026000
4389.73    2502.797000
4391.36    2694.455000
4393.00    2721.301000
4394.63    2476.416000
4396.27    2014.066000
4397.90    1969.465000
4399.53    2231.596000
4401.17    2199.677000
4402.80    2406.546000
4404.44    2753.766000
4406.07    2765.734000
4407.70    2681.764000
4409.34    2469.120000
4410.97    2359.411000
4412.60    2087.247000
4414.24    1943.725000
4415.87    2386.382000
4417.51    2571.594000
4419.14    2409.589000
4420.77    2451.860000
4422.41    2355.550000
4424.04    2360.086000
4425.68    2545.073000
4427.31    2338.341000
4428.94    2569.202000
4430.58    2631.625000
4432.21    2489.296000
4433.85    2573.560000
4435.48    2758.310000
4437.11    2756.423000
4438.75    2712.113000
4440.38    2515.795000
4442.02    2165.696000
4443.65    2271.797000
4445.28    2294.521000
4446.92    2318.562000
4448.55    2280.939000
4450.18    2195.006000
4451.82    2469.210000
4453.45    2487.369000
4455.09    2315.096000
4456.72    2082.639000
4458.35    2143.663000
4459.99    2051.076000
4461.62    2186.293000
4463.25    2291.498000
4464.89    2281.419000
4466.52    2369.391000
4468.16    2450.866000
4469.79    2472.138000
4471.42    2435.311000
4473.06    2604.251000
4474.69    2646.193000
4476.32    2334.299000
4477.96    2249.546000
4479.59    2188.070000
4481.23    2290.753000
4482.86    2342.574000
4484.49    2534.243000
4486.13    2804.162000
4487.76    2879.787000
4489.40    2780.771000
4491.03    2546.044000
4492.66    2636.563000
4494.30    2686.809000
4495.93    2773.641000
4497.56    2633.595000
4499.20    2589.302000
4500.83    2622.971000
4502.47    2565.821000
4504.10    2714.579000
4505.73    2813.000000
4507.37    2564.918000
4509.00    2414.417000
4510.64    2498.758000
4512.27    2715.139000
4513.90    2836.382000
4515.54    2707.502000
4517.17    2648.866000
4518.81    2778.320000
4520.44    2862.198000
4522.07    2814.759000
4523.71    3048.401000
4525.34    2943.591000
4526.98    2726.432000
4528.61    2615.705000
4530.24    2633.945000
4531.88    2724.258000
4533.51    2744.424000
4535.14    2698.608000
4536.78    2668.180000
4538.41    2775.765000
4540.05    2691.749000
4541.68    2624.504000
4543.31    3010.909000
4544.95    3063.128000
4546.58    2917.849000
4548.22    3243.668000
4549.85    3151.203000
4551.48    3184.197000
4553.12    3077.573000
4554.75    2768.353000
4556.38    2801.657000
4558.02    2912.942000
4559.65    2904.939000
4561.29    3018.187000
4562.92    3060.646000
4564.55    3037.418000
4566.19    2736.475000
4567.82    2962.274000
4569.45    3156.953000
4571.09    3015.757000
4572.72    2800.454000
4574.36    2728.699000
4575.99    2926.375000
4577.62    3124.356000
4579.26    3491.274000
4580.89    3445.639000
4582.52    3242.039000
4584.16    3295.664000
4585.79    3363.354000
4587.43    3309.202000
4589.06    3254.682000
4590.69    3115.736000
4592.33    3140.371000
4593.96    3153.472000
4595.60    2931.118000
4597.23    2876.276000
4598.86    3190.866000
4600.50    3101.649000
4602.13    2889.596000
4603.77    2710.826000
4605.40    2489.529000
4607.03    2154.221000
4608.67    2624.086000
4610.30    2752.960000
4611.94    2964.369000
4613.57    2904.909000
4615.20    3039.262000
4616.84    2922.563000
4618.47    3194.647000
4620.10    3128.551000
4621.74    2991.405000
4623.37    2772.529000
4625.01    2903.513000
4626.64    3102.134000
4628.27    2807.148000
4629.91    2670.699000
4631.54    2654.708000
4633.18    2960.245000
4634.81    3170.448000
4636.44    3158.076000
4638.08    3122.405000
4639.71    3220.375000
4641.34    3139.369000
4642.98    3179.542000
4644.61    3331.834000
4646.25    2930.002000
4647.88    2836.095000
4649.51    3288.130000
4651.15    3381.023000
4652.78    3075.666000
4654.41    2809.087000
4656.05    3213.912000
4657.68    3205.078000
4659.32    2948.048000
4660.95    2893.072000
4662.58    2952.646000
4664.22    2999.343000
4665.85    3094.446000
4667.49    2978.905000
4669.12    2867.620000
4670.75    2959.244000
4672.39    2970.466000
4674.02    2954.775000
4675.65    3108.606000
4677.29    2994.446000
4678.92    2935.706000
4680.56    3047.369000
4682.19    2925.701000
4683.82    3125.018000
4685.46    3190.840000
4687.09    3204.710000
4688.73    3278.433000
4690.36    3211.045000
4691.99    3090.044000
4693.63    3315.172000
4695.26    3351.658000
4696.90    3158.150000
4698.53    3020.574000
4700.16    2866.710000
4701.80    3192.424000
4703.43    3293.463000
4705.06    3130.605000
4706.70    3206.782000
4708.33    3135.970000
4709.97    3285.489000
4711.60    2976.555000
4713.23    2839.003000
4714.87    2897.601000
4716.50    3220.269000
4718.14    2818.873000
4719.77    3282.636000
4721.40    3212.058000
4723.04    3145.918000
4724.67    3057.738000
4726.30    2772.452000
4727.94    3132.748000
4729.57    3294.257000
4731.21    3030.069000
4732.84    3192.884000
4734.47    3201.233000
4736.11    3361.155000
4737.74    3000.848000
4739.38    3071.087000
4741.01    3243.860000
4742.64    2993.784000
4744.28    3216.135000
4745.91    2914.019000
4747.54    2709.614000
4749.18    2965.486000
4750.81    3943.578000
4752.45    3088.000000
4754.08    3301.152000
4755.71    3231.458000
4757.35    2863.872000
4758.98    2879.601000
4760.61    2811.953000
4762.25    2957.922000
4763.88    3166.067000
4765.52    3194.186000
4767.15    3041.548000
4768.78    3123.289000
4770.42    2994.700000
4772.05    3088.882000
4773.69    2896.096000
4775.32    2906.008000
4776.95    3015.901000
4778.59    2931.235000
4780.22    3024.433000
4781.85    3016.626000
4783.49    3028.367000
4785.12    3021.820000
4786.76    2749.953000
4788.39    2989.089000
4790.02    2744.969000
4791.66    2975.281000
4793.29    2983.854000
4794.93    3018.173000
4796.56    3035.028000
4798.19    3234.966000
4799.83    3215.638000
4801.46    3231.851000
4803.10    3129.164000
4804.73    3158.363000
4806.36    3112.467000
4808.00    3052.161000
4809.63    3014.672000
4811.26    3322.764000
4812.90    3183.188000
4814.53    3115.986000
4816.17    3160.308000
4817.80    3028.557000
4819.43    2928.815000
4821.07    3290.172000
4822.70    3119.758000
4824.34    3018.724000
4825.97    3283.657000
4827.60    3403.461000
4829.24    3116.954000
4830.87    3294.694000
4832.50    3349.513000
4834.14    2935.814000
4835.77    3137.444000
4837.41    3459.342000
4839.04    3219.415000
4840.67    3009.813000
4842.31    3077.778000
4843.94    3048.136000
4845.57    3357.906000
4847.21    2969.275000
4848.84    3052.508000
4850.48    3232.581000
4852.11    3068.261000
4853.74    3090.685000
4855.38    3207.070000
4857.01    3240.043000
4858.65    3134.247000
4860.28    2922.671000
4861.91    3164.093000
4863.55    3161.383000
4865.18    2920.999000
4866.81    3003.916000
4868.45    3045.916000
4870.08    3164.944000
4871.72    3232.056000
4873.35    3166.027000
4874.98    2959.330000
4876.62    3108.818000
4878.25    3272.350000
4879.89    3379.640000
4881.52    2912.154000
4883.15    3075.582000
4884.79    3439.861000
4886.42    3133.585000
4888.06    3111.614000
4889.69    3153.970000
4891.32    3297.175000
4892.96    2808.082000
4894.59    3397.290000
4896.23    2903.316000
4897.86    2994.274000
4899.49    3159.882000
4901.13    3080.154000
4902.76    3251.247000
4904.39    3275.523000
4906.03    3209.423000
4907.66    2988.982000
4909.30    3144.076000
4910.93    3097.918000
4912.56    2812.113000
4914.20    2911.884000
4915.83    2999.370000
4917.46    3091.476000
4919.10    2769.065000
4920.73    2853.576000
4922.37    3264.912000
4924.00    2792.091000
4925.63    3135.559000
4927.27    3124.167000
4928.90    3200.579000
4930.53    3145.066000
4932.17    3131.977000
4933.80    2997.550000
4935.44    2725.239000
4937.07    2860.906000
4938.70    2717.501000
4940.34    2903.205000
4941.97    2633.471000
4943.61    2596.012000
4945.24    2833.353000
4946.87    2703.635000
4948.51    2755.270000
4950.14    3358.426000
4951.77    2671.660000
4953.41    2991.295000
4955.04    2718.944000
4956.68    3261.683000
4958.31    3025.126000
4959.94    3254.977000
4961.58    2944.144000
4963.21    2867.253000
4964.85    2991.709000
4966.48    3008.228000
4968.11    3064.973000
4969.75    2825.386000
4971.38    2856.115000
4973.02    3104.766000
4974.65    3106.926000
4976.28    3071.402000
4977.92    3266.855000
4979.55    3351.093000
4981.19    3134.936000
4982.82    3118.430000
4984.45    3089.028000
4986.09    3026.706000
4987.72    3034.976000
4989.35    3056.839000
4990.99    3014.460000
4992.62    3075.684000
4994.26    3075.277000
4995.89    2968.094000
4997.52    3040.879000
4999.16    2849.101000
5000.79    2857.124000
5002.43    2808.781000
5004.06    2935.688000
5005.69    2894.500000
5007.33    2908.752000
5008.96    2951.385000
5010.59    3267.283000
5012.23    3337.495000
5013.86    3288.544000
5015.50    3047.211000
5017.13    3171.523000
5018.76    2943.299000
5020.40    3093.247000
5022.03    3013.300000
5023.66    2886.896000
5025.30    2874.363000
5026.93    3245.580000
5028.57    3235.761000
5030.20    3116.890000
5031.83    3149.348000
5033.47    3293.967000
5035.10    3121.649000
5036.73    3260.973000
5038.37    2976.430000
5040.00    2974.344000
5041.64    3064.269000
5043.27    3021.751000
5044.90    2882.827000
5046.54    3000.678000
5048.17    3051.067000
5049.81    2910.170000
5051.44    2968.646000
5053.07    2993.570000
5054.71    2977.686000
5056.34    2929.840000
5057.98    3148.241000
5059.61    3230.049000
5061.24    2992.077000
5062.88    2957.211000
5064.51    2832.712000
5066.15    2725.758000
5067.78    2682.696000
5069.41    2815.370000
5071.05    3225.657000
5072.68    3078.805000
5074.31    2975.109000
5075.95    3002.241000
5077.58    2964.106000
5079.22    3087.506000
5080.85    3041.692000
5082.48    2936.952000
5084.12    2628.103000
5085.75    2941.375000
5087.39    3132.844000
5089.02    3048.735000
5090.65    3204.762000
5092.29    2844.001000
5093.92    2952.515000
5095.55    3054.076000
5097.19    2658.397000
5098.82    2552.058000
5100.46    2691.502000
5102.09    2762.885000
5103.72    2799.306000
5105.36    2892.688000
5106.99    2790.253000
5108.62    2855.010000
5110.26    2984.591000
5111.89    2985.110000
5113.53    2960.193000
5115.16    2883.403000
5116.79    3061.059000
5118.43    3067.292000
5120.06    2930.017000
5121.70    2963.881000
5123.33    2771.764000
5124.96    2564.100000
5126.60    2514.718000
5128.23    3015.430000
5129.86    2885.005000
5131.50    2682.295000
5133.13    2761.348000
5134.77    2886.160000
5136.40    2994.387000
5138.03    2954.127000
5139.67    3113.268000
5141.30    2955.378000
5142.94    2936.951000
5144.57    2995.249000
5146.20    3096.751000
5147.84    3099.675000
5149.47    2981.197000
5151.10    3123.715000
5152.74    2912.455000
5154.37    2764.272000
5156.01    2670.266000
5157.64    3000.088000
5159.27    2804.603000
5160.91    2961.519000
5162.54    3120.685000
5164.18    2804.538000
5165.81    2503.205000
5167.44    2696.730000
5169.08    3090.602000
5170.71    2854.873000
5172.35    2895.812000
5173.98    2943.035000
5175.61    2828.234000
5177.25    2992.383000
5178.88    3081.323000
5180.51    2966.025000
5182.15    2970.650000
5183.78    3002.595000
5185.42    2984.714000
5187.05    2571.480000
5188.68    2756.234000
5190.32    2861.253000
5191.95    2743.358000
5193.59    2955.735000
5195.22    2906.272000
5196.85    2767.301000
5198.49    2956.913000
5200.12    3024.066000
5201.75    3046.010000
5203.39    3268.530000
5205.02    2833.675000
5206.66    2955.721000
5208.29    2903.826000
5209.92    2878.664000
5211.56    2570.131000
5213.19    2623.718000
5214.82    2604.172000
5216.46    2768.531000
5218.09    2679.675000
5219.73    2947.559000
5221.36    2907.401000
5222.99    3145.711000
5224.63    3001.625000
5226.26    2811.490000
5227.90    3009.672000
5229.53    2705.192000
5231.16    2751.301000
5232.80    2699.105000
5234.43    2744.971000
5236.06    2922.301000
5237.70    2731.842000
5239.33    2469.286000
5240.97    2483.084000
5242.60    2575.798000
5244.23    2540.254000
5245.87    2877.255000
5247.50    2717.094000
5249.14    2755.140000
5250.77    2662.371000
5252.40    2565.977000
5254.04    2073.267000
5255.67    2137.317000
5257.31    2098.574000
5258.94    2266.037000
5260.57    2223.634000
5262.21    2342.334000
5263.84    2133.424000
5265.48    2241.489000
5267.11    2030.529000
5268.74    2475.292000
5270.38    2277.793000
5272.01    2307.438000
5273.64    2438.199000
5275.28    2453.344000
5276.91    2503.620000
5278.55    2669.243000
5280.18    2626.293000
5281.81    2515.159000
5283.45    2669.713000
5285.08    2616.183000
5286.71    2736.120000
5288.35    2869.500000
5289.98    2745.783000
5291.62    2735.573000
5293.25    2700.912000
5294.88    2578.266000
5296.52    2513.446000
5298.15    2567.981000
5299.78    2596.553000
5301.42    2602.169000
5303.05    2799.140000
5304.69    2696.561000
5306.32    2784.767000
5307.95    2859.099000
5309.59    2809.815000
5311.22    2603.762000
5312.86    2731.565000
5314.49    2668.779000
5316.12    2664.878000
5317.76    2587.490000
5319.39    2874.413000
5321.02    3080.082000
5322.66    2937.678000
5324.29    2886.652000
5325.93    2967.859000
5327.56    3109.552000
5329.19    3214.575000
5330.83    3031.487000
5332.46    2823.174000
5334.10    2833.924000
5335.73    2851.107000
5337.36    2809.972000
5339.00    2880.601000
5340.63    2657.944000
5342.27    2770.561000
5343.90    2919.460000
5345.53    2845.087000
5347.17    3059.440000
5348.80    2973.783000
5350.44    2712.958000
5352.07    2571.484000
5353.70    2697.596000
5355.34    1933.243000
5356.97    1911.719000
5358.60    2499.424000
5360.24    2629.313000
5361.87    2546.445000
5363.51    2888.670000
5365.14    2831.621000
5366.77    2622.863000
5368.41    2880.866000
5370.04    2992.849000
5371.68    3098.042000
5373.31    2929.437000
5374.94    3002.458000
5376.58    3261.263000
5378.21    3040.786000
5379.84    3299.182000
5381.48    3197.054000
5383.11    3060.027000
5384.75    2716.433000
5386.38    2801.165000
5388.01    2646.523000
5389.65    2523.350000
5391.28    2928.930000
5392.91    2924.662000
5394.55    2829.655000
5396.18    2915.828000
5397.82    2916.115000
5399.45    3065.270000
5401.08    3098.051000
5402.72    3089.901000
5404.35    2908.561000
5405.98    3245.942000
5407.62    3048.355000
5409.25    2844.784000
5410.89    2918.997000
5412.52    3121.616000
5414.15    2770.150000
5415.79    2676.585000
5417.42    2682.247000
5419.06    2767.336000
5420.69    2685.010000
5422.32    2715.298000
5423.96    3001.114000
5425.59    2811.575000
5427.23    2854.134000
5428.86    2979.552000
5430.49    3056.555000
5432.13    2985.926000
5433.76    2918.114000
5435.40    2872.365000
5437.03    3049.854000
5438.66    2960.513000
5440.30    2894.604000
5441.93    3051.250000
5443.56    3116.496000
5445.20    2997.221000
5446.83    3140.986000
5448.47    3093.330000
5450.10    3085.214000
5451.73    3210.979000
5453.37    3133.256000
5455.00    2958.519000
5456.64    2794.433000
5458.27    2950.187000
5459.90    2991.410000
5461.54    2841.045000
5463.17    3078.224000
5464.80    3247.567000
5466.44    2994.428000
5468.07    3300.217000
5469.71    3257.433000
5471.34    3070.230000
5472.97    2990.050000
5474.61    3058.268000
5476.24    2971.816000
5477.88    3005.779000
5479.51    2861.851000
5481.14    2818.895000
5482.78    2836.943000
5484.41    2679.482000
5486.04    2796.163000
5487.68    2813.862000
5489.31    2800.278000
5490.95    2790.865000
5492.58    2870.884000
5494.21    3127.017000
5495.85    2691.372000
5497.48    2731.043000
5499.11    2587.767000
5500.75    2821.724000
5502.38    3018.315000
5504.02    2929.516000
5505.65    2910.121000
5507.28    3119.440000
5508.92    2946.374000
5510.55    3179.865000
5512.19    3161.906000
5513.82    3272.201000
5515.45    2922.111000
5517.09    3107.291000
5518.72    3080.900000
5520.35    2970.630000
5521.99    2868.631000
5523.62    2969.535000
5525.26    2838.975000
5526.89    2714.992000
5528.52    2992.680000
5530.16    2976.134000
5531.79    3013.746000
5533.43    3195.895000
5535.06    3241.473000
5536.69    3031.052000
5538.33    2826.093000
5539.96    2896.028000
5541.60    2943.813000
5543.23    2934.615000
5544.86    2884.325000
5546.50    2760.164000
5548.13    2902.675000
5549.76    3045.853000
5551.40    2837.178000
5553.03    2955.613000
5554.67    2853.993000
5556.30    2844.994000
5557.93    3148.155000
5559.57    3039.708000
5561.20    3057.562000
5562.84    2928.721000
5564.47    2921.251000
5566.10    3014.245000
5567.74    2947.560000
5569.37    2852.613000
5571.00    2701.014000
5572.64    3036.584000
5574.27    2877.020000
5575.91    2561.068000
5577.54    3055.814000
5579.17    3182.467000
5580.81    3436.524000
5582.44    2960.698000
5584.07    3404.763000
5585.71    3420.291000
5587.34    2898.606000
5588.98    2920.656000
5590.61    2944.147000
5592.24    2885.901000
5593.88    2970.052000
5595.51    3062.849000
5597.15    3094.668000
5598.78    2962.965000
5600.41    2835.520000
5602.05    2726.276000
5603.68    2762.058000
5605.31    2927.373000
5606.95    2923.883000
5608.58    2851.474000
5610.22    2827.333000
5611.85    2828.321000
5613.48    2849.488000
5615.12    2875.391000
5616.75    2877.953000
5618.39    2893.430000
5620.02    2854.077000
5621.65    2763.536000
5623.29    2787.136000
5624.92    2855.379000
5626.56    2904.018000
5628.19    2936.106000
5629.82    2819.426000
5631.46    2931.938000
5633.09    3033.487000
5634.73    3114.929000
5636.36    3035.971000
5637.99    2916.766000
5639.63    2843.050000
5641.26    2896.692000
5642.89    3019.617000
5644.53    3055.150000
5646.16    3030.312000
5647.80    2855.630000
5649.43    2774.490000
5651.06    2817.933000
5652.70    2882.068000
5654.33    2914.397000
5655.96    2928.266000
5657.60    2905.577000
5659.23    2874.922000
5660.87    2915.659000
5662.50    2950.470000
5664.13    2852.592000
5665.77    2691.501000
5667.40    2832.983000
5669.03    2732.016000
5670.67    2685.612000
5672.30    2672.006000
5673.94    2766.550000
5675.57    2668.015000
5677.20    2664.430000
5678.84    2760.120000
5680.47    2930.541000
5682.11    2781.650000
5683.74    2683.829000
5685.37    2682.153000
5687.01    2644.888000
5688.64    2623.572000
5690.27    2616.368000
5691.91    2645.802000
5693.54    2771.125000
5695.18    2742.728000
5696.81    2726.064000
5698.44    2821.021000
5700.08    2868.560000
5701.71    2923.444000
5703.35    2968.016000
5704.98    2979.585000
5706.61    2929.804000
5708.25    2865.841000
5709.88    2819.417000
5711.52    2979.700000
5713.15    2813.401000
5714.78    2757.626000
5716.42    2750.226000
5718.05    2809.339000
5719.69    2703.505000
5721.32    2654.934000
5722.95    2646.837000
5724.59    2988.621000
5726.22    2937.058000
5727.85    2843.648000
5729.49    2702.703000
5731.12    2760.359000
5732.76    2765.529000
5734.39    2712.469000
5736.02    2583.829000
5737.66    2732.134000
5739.29    2870.413000
5740.93    2957.685000
5742.56    2959.375000
5744.19    3008.215000
5745.83    2948.504000
5747.46    2851.813000
5749.09    2695.553000
5750.73    2830.918000
5752.36    2884.179000
5753.99    2889.080000
5755.63    2775.016000
5757.26    2602.306000
5758.90    2615.617000
5760.53    2667.941000
5762.16    2645.885000
5763.80    2627.135000
5765.43    2666.847000
5767.07    2736.287000
5768.70    2893.396000
5770.33    2984.105000
5771.97    2982.516000
5773.60    2921.633000
5775.23    2937.638000
5776.87    2807.223000
5778.50    2743.825000
5780.14    2732.906000
5781.77    2773.030000
5783.40    2839.193000
5785.04    2869.628000
5786.67    2868.365000
5788.31    2721.738000
5789.94    2811.697000
5791.57    2821.543000
5793.21    2676.144000
5794.84    2540.643000
5796.48    2663.691000
5798.11    2805.273000
5799.74    2950.540000
5801.38    2794.957000
5803.01    2656.528000
5804.65    2576.923000
5806.28    2708.236000
5807.91    2691.048000
5809.55    2689.269000
5811.18    2729.880000
5812.81    3013.625000
5814.45    3150.112000
5816.08    3161.214000
5817.72    3107.667000
5819.35    2944.870000
5820.98    2885.249000
5822.62    2918.591000
5824.25    2995.869000
5825.89    3031.650000
5827.52    2848.370000
5829.15    2794.148000
5830.79    2833.159000
5832.42    2911.004000
5834.05    2886.609000
5835.69    2834.259000
5837.32    2744.645000
5838.96    2966.417000
5840.59    3040.544000
5842.22    3071.946000
5843.86    3051.301000
5845.49    3122.031000
5847.12    3018.225000
5848.76    2911.062000
5850.39    2835.485000
5852.03    2759.410000
5853.66    2800.478000
5855.29    2854.740000
5856.93    2909.388000
5858.56    2788.286000
5860.19    2863.572000
5861.83    2962.045000
5863.46    2967.116000
5865.10    2862.226000
5866.73    2924.707000
5868.36    3037.982000
5870.00    3091.876000
5871.63    2958.028000
5873.27    2833.120000
5874.90    2705.560000
5876.53    2653.844000
5878.17    2701.542000
5879.80    2773.153000
5881.44    2862.093000
5883.07    3062.393000
5884.70    2992.923000
5886.34    2817.938000
5887.97    2517.900000
5889.60    2556.430000
5891.24    2731.631000
5892.87    2876.299000
5894.51    2996.384000
5896.14    3057.542000
5897.77    3074.494000
5899.41    3077.157000
5901.04    3067.709000
5902.68    2975.870000
5904.31    2886.777000
5905.94    2844.484000
5907.58    2953.416000
5909.21    2906.026000
5910.85    2799.810000
5912.48    2733.099000
5914.11    2904.117000
5915.75    2940.607000
5917.38    2945.734000
5919.01    2927.313000
5920.65    2841.582000
5922.28    2930.445000
5923.92    2999.857000
5925.55    3035.127000
5927.18    2802.542000
5928.82    2736.141000
5930.45    2722.160000
5932.09    2740.285000
5933.72    2845.965000
5935.35    2772.851000
5936.99    2683.198000
5938.62    2572.469000
5940.25    2684.287000
5941.89    2752.402000
5943.52    2764.547000
5945.16    2713.062000
5946.79    2711.548000
5948.42    2696.335000
5950.06    2624.290000
5951.69    2443.802000
5953.32    2557.490000
5954.96    2646.971000
5956.59    2722.012000
5958.23    2787.318000
5959.86    2789.622000
5961.49    2816.153000
5963.13    2841.270000
5964.76    2858.594000
5966.40    2655.441000
5968.03    2671.577000
5969.66    2771.265000
5971.30    3030.818000
5972.93    2779.702000
5974.56    2687.392000
5976.20    2666.898000
5977.83    2777.878000
5979.47    2700.101000
5981.10    2657.615000
5982.73    2626.080000
5984.37    2568.390000
5986.00    2579.147000
5987.64    2571.853000
5989.27    2545.300000
5990.90    2527.472000
5992.54    2385.251000
5994.17    2273.429000
5995.81    2192.750000
5997.44    2377.622000
5999.07    2523.580000
6000.71    2667.433000
6002.34    2833.237000
6003.98    2861.978000
6005.61    2741.666000
6007.24    2582.414000
6008.88    2360.228000
6010.51    2623.246000
6012.14    2884.516000
6013.78    3043.792000
6015.41    2859.939000
6017.05    2736.062000
6018.68    2857.681000
6020.31    2966.851000
6021.95    2704.438000
6023.58    2750.181000
6025.21    2777.007000
6026.85    2785.421000
6028.48    2722.406000
6030.12    2708.187000
6031.75    2716.198000
6033.38    2724.065000
6035.02    2634.881000
6036.65    2728.489000
6038.28    2801.111000
6039.92    2858.838000
6041.55    2918.027000
6043.19    2734.437000
6044.82    2725.355000
6046.45    2903.261000
6048.09    2614.554000
6049.72    2759.637000
6051.36    2783.941000
6052.99    2614.096000
6054.62    2747.563000
6056.26    2742.325000
6057.89    2747.659000
6059.52    2806.273000
6061.16    2772.111000
6062.79    2718.468000
6064.43    2725.664000
6066.06    2946.136000
6067.69    2897.861000
6069.33    2867.280000
6070.96    2841.992000
6072.60    2846.972000
6074.23    2778.298000
6075.86    2741.854000
6077.50    2714.595000
6079.13    2697.161000
6080.77    2695.277000
6082.40    2707.983000
6084.03    2733.298000
6085.67    2898.325000
6087.30    2795.538000
6088.94    2736.709000
6090.57    2699.153000
6092.20    2707.981000
6093.84    2590.017000
6095.47    2589.652000
6097.10    2700.880000
6098.74    2948.630000
6100.37    2857.792000
6102.01    2805.015000
6103.64    2820.403000
6105.27    2571.103000
6106.91    2582.665000
6108.54    2688.781000
6110.18    2968.377000
6111.81    2738.684000
6113.44    2684.457000
6115.08    2654.489000
6116.71    2642.757000
6118.34    2590.300000
6119.98    2690.575000
6121.61    2753.255000
6123.24    2540.211000
6124.88    2748.860000
6126.51    2761.832000
6128.15    2716.299000
6129.78    2695.897000
6131.41    2850.078000
6133.05    2797.619000
6134.68    2661.898000
6136.32    2657.759000
6137.95    2662.900000
6139.58    2666.584000
6141.22    2674.372000
6142.85    2886.653000
6144.48    2837.465000
6146.12    2868.280000
6147.75    2971.616000
6149.39    2729.985000
6151.02    2901.406000
6152.65    2962.592000
6154.29    2896.317000
6155.92    2649.986000
6157.56    2699.360000
6159.19    2739.567000
6160.82    2746.021000
6162.46    2782.663000
6164.09    2810.492000
6165.73    2833.965000
6167.36    2865.743000
6168.99    2801.926000
6170.63    2773.180000
6172.26    2751.109000
6173.90    2743.664000
6175.53    2794.687000
6177.16    2772.931000
6178.80    2738.454000
6180.43    2770.278000
6182.06    2785.804000
6183.70    2769.662000
6185.33    2719.237000
6186.97    2489.339000
6188.60    2677.541000
6190.23    2739.189000
6191.87    2729.154000
6193.50    2723.328000
6195.14    2726.976000
6196.77    2744.413000
6198.40    2765.895000
6200.04    2545.469000
6201.67    2603.901000
6203.30    2626.187000
6204.94    2605.407000
6206.57    2614.926000
6208.20    2636.292000
6209.84    2689.330000
6211.47    2806.514000
6213.11    2906.304000
6214.74    2881.354000
6216.38    2846.985000
6218.01    2825.656000
6219.64    2673.454000
6221.28    2587.474000
6222.91    2534.104000
6224.54    2557.097000
6226.18    2631.088000
6227.81    2627.319000
6229.44    2577.167000
6231.08    2409.092000
6232.71    2612.215000
6234.35    2682.688000
6235.98    2689.970000
6237.61    2575.697000
6239.25    2676.780000
6240.88    2619.190000
6242.52    2477.284000
6244.15    2393.978000
6245.78    2602.328000
6247.42    2723.742000
6249.05    2783.355000
6250.69    2582.228000
6252.32    2527.719000
6253.95    2594.691000
6255.59    2790.625000
6257.22    2639.821000
6258.85    2529.011000
6260.49    2488.657000
6262.12    2556.052000
6263.76    2513.993000
6265.39    2367.548000
6267.02    2265.613000
6268.66    2265.491000
6270.29    2538.086000
6271.93    2567.379000
6273.56    2528.246000
6275.19    2392.681000
6276.83    2199.382000
6278.46    2290.566000
6280.10    2460.004000
6281.73    2728.058000
6283.36    2679.034000
6285.00    2631.681000
6286.63    2570.927000
6288.26    2434.019000
6289.90    2495.629000
6291.53    2617.289000
6293.17    2766.336000
6294.80    2913.016000
6296.43    2642.620000
6298.07    2497.955000
6299.70    2431.355000
6301.34    2740.069000
6302.97    2743.776000
6304.60    2716.335000
6306.24    2656.742000
6307.87    2659.958000
6309.50    2762.751000
6311.14    2778.366000
6312.77    2689.071000
6314.41    2473.636000
6316.04    2421.547000
6317.67    2372.996000
6319.31    2316.462000
6320.94    2326.980000
6322.57    2349.981000
6324.21    2385.013000
6325.84    2463.373000
6327.48    2486.971000
6329.11    2470.571000
6330.74    2452.319000
6332.38    2460.889000
6334.01    2381.508000
6335.65    2369.970000
6337.28    2391.410000
6338.91    2523.045000
6340.55    2477.366000
6342.18    2442.267000
6343.81    2408.752000
6345.45    2399.408000
6347.08    2393.495000
6348.72    2444.112000
6350.35    2523.791000
6351.98    2594.172000
6353.62    2481.518000
6355.25    2399.018000
6356.89    2330.861000
6358.52    2519.814000
6360.15    2442.373000
6361.79    2359.957000
6363.42    2265.354000
6365.06    2297.164000
6366.69    2429.875000
6368.32    2548.282000
6369.96    2651.333000
6371.59    2464.593000
6373.22    2380.684000
6374.86    2355.481000
6376.49    2457.506000
6378.13    2487.945000
6379.76    2555.770000
6381.39    2610.989000
6383.03    2616.016000
6384.66    2403.636000
6386.30    2361.835000
6387.93    2391.774000
6389.56    2601.065000
6391.20    2544.273000
6392.83    2483.503000
6394.46    2430.030000
6396.10    2483.868000
6397.73    2423.412000
6399.37    2382.138000
6401.00    2351.416000
6402.63    2449.870000
6404.27    2447.821000
6405.90    2418.821000
6407.53    2363.711000
6409.17    2396.478000
6410.80    2417.529000
6412.44    2439.200000
6414.07    2460.405000
6415.70    2578.609000
6417.34    2495.950000
6418.97    2433.313000
6420.61    2415.032000
6422.24    2658.895000
6423.87    2706.156000
6425.51    2651.174000
6427.14    2411.182000
6428.77    2506.354000
6430.41    2641.130000
6432.04    2712.235000
6433.68    2576.201000
6435.31    2524.520000
6436.94    2527.745000
6438.58    2527.973000
6440.21    2477.631000
6441.85    2480.464000
6443.48    2526.309000
6445.11    2580.894000
6446.75    2612.353000
6448.38    2547.806000
6450.02    2480.290000
6451.65    2407.769000
6453.28    2407.270000
6454.92    2579.338000
6456.55    2641.856000
6458.19    2631.932000
6459.82    2628.333000
6461.45    2681.397000
6463.09    2614.112000
6464.72    2426.138000
6466.35    2376.866000
6467.99    2456.488000
6469.62    2511.729000
6471.26    2543.414000
6472.89    2454.914000
6474.52    2423.362000
6476.16    2396.112000
6477.79    2371.577000
6479.42    2480.884000
6481.06    2593.383000
6482.69    2629.755000
6484.33    2467.865000
6485.96    2451.928000
6487.59    2531.540000
6489.23    2604.187000
6490.86    2585.303000
6492.49    2582.197000
6494.13    2569.433000
6495.76    2530.599000
6497.40    2375.311000
6499.03    2341.090000
6500.66    2376.107000
6502.30    2436.718000
6503.93    2487.242000
6505.57    2435.160000
6507.20    2416.427000
6508.83    2412.430000
6510.47    2416.084000
6512.10    2372.929000
6513.73    2405.378000
6515.37    2504.279000
6517.00    2412.393000
6518.64    2517.849000
6520.27    2531.616000
6521.90    2439.693000
6523.54    2467.078000
6525.17    2357.505000
6526.81    2310.184000
6528.44    2389.075000
6530.07    2342.306000
6531.71    2359.302000
6533.34    2382.842000
6534.98    2419.370000
6536.61    2394.258000
6538.24    2341.866000
6539.88    2309.675000
6541.51    2373.545000
6543.15    2439.364000
6544.78    2422.346000
6546.41    2366.298000
6548.05    2237.901000
6549.68    2415.604000
6551.31    2485.561000
6552.95    2495.914000
6554.58    2350.091000
6556.22    2409.707000
6557.85    2404.560000
6559.48    2360.736000
6561.12    2375.492000
6562.75    2369.852000
6564.39    2423.458000
6566.02    2521.826000
6567.65    2471.717000
6569.29    2456.335000
6570.92    2439.394000
6572.55    2418.335000
6574.19    2536.579000
6575.82    2461.749000
6577.45    2423.262000
6579.09    2455.458000
6580.72    2422.378000
6582.36    2439.463000
6583.99    2431.472000
6585.62    2366.920000
6587.26    2518.341000
6588.89    2491.282000
6590.53    2468.695000
6592.16    2560.773000
6593.79    2373.901000
6595.43    2323.558000
6597.06    2311.544000
6598.69    2352.994000
6600.33    2275.099000
6601.96    2279.042000
6603.60    2304.500000
6605.23    2287.298000
6606.86    2270.814000
6608.50    2253.518000
6610.13    2242.122000
6611.77    2405.135000
6613.40    2450.678000
6615.03    2483.704000
6616.67    2505.350000
6618.30    2564.290000
6619.94    2541.958000
6621.57    2516.119000
6623.20    2482.170000
6624.84    2475.946000
6626.47    2366.932000
6628.10    2350.746000
6629.74    2482.311000
6631.37    2435.447000
6633.01    2412.961000
6634.64    2400.591000
6636.27    2412.505000
6637.91    2337.301000
6639.54    2336.267000
6641.18    2379.191000
6642.81    2539.735000
6644.44    2446.559000
6646.08    2342.280000
6647.71    2283.401000
6649.35    2452.298000
6650.98    2402.605000
6652.61    2294.673000
6654.25    2206.373000
6655.88    2413.908000
6657.51    2464.633000
6659.15    2400.171000
6660.78    2299.042000
6662.42    2476.639000
6664.05    2383.263000
6665.68    2369.026000
6667.32    2398.464000
6668.95    2334.685000
6670.59    2335.081000
6672.22    2328.423000
6673.85    2315.505000
6675.49    2350.318000
6677.12    2376.028000
6678.75    2370.493000
6680.39    2331.271000
6682.02    2315.447000
6683.65    2239.154000
6685.29    2210.770000
6686.92    2279.918000
6688.56    2349.023000
6690.19    2529.960000
6691.82    2698.583000
6693.46    2830.352000
6695.09    2739.265000
6696.73    2602.712000
6698.36    2470.106000
6699.99    2393.849000
6701.63    2332.509000
6703.26    2294.569000
6704.90    2264.140000
6706.53    2268.413000
6708.16    2293.786000
6709.80    2304.299000
6711.43    2310.152000
6713.06    2342.509000
6714.70    2221.385000
6716.33    2191.683000
6717.97    2205.870000
6719.60    2155.136000
6721.23    2217.446000
6722.87    2253.499000
6724.50    2263.209000
6726.14    2334.847000
6727.77    2387.074000
6729.40    2392.856000
6731.04    2344.535000
6732.67    2202.088000
6734.31    2265.869000
6735.94    2255.614000
6737.57    2111.098000
6739.21    2248.978000
6740.84    2226.591000
6742.47    2156.581000
6744.11    2011.886000
6745.74    2066.094000
6747.38    2273.475000
6749.01    2420.359000
6750.64    2282.483000
6752.28    2243.114000
6753.91    2238.891000
6755.55    2235.121000
6757.18    2208.397000
6758.81    2198.251000
6760.45    2226.544000
6762.08    2266.070000
6763.71    2300.942000
6765.35    2386.003000
6766.98    2355.304000
6768.62    2256.493000
6770.25    2149.912000
6771.88    2190.713000
6773.52    2180.727000
6775.15    2131.274000
6776.78    2208.998000
6778.42    2150.282000
6780.05    2118.442000
6781.69    2112.373000
6783.32    2244.672000
6784.95    2230.718000
6786.59    2246.019000
6788.22    2322.245000
6789.85    2217.260000
6791.49    2159.052000
6793.12    2185.649000
6794.76    2401.822000
6796.39    2399.872000
6798.02    2276.577000
6799.66    2174.111000
6801.29    2192.390000
6802.93    2107.651000
6804.56    2083.847000
6806.19    2062.846000
6807.83    2009.416000
6809.46    2055.367000
6811.10    2105.579000
6812.73    2151.594000
6814.36    2156.596000
6816.00    2085.283000
6817.63    2100.409000
6819.27    2156.066000
6820.90    2253.549000
6822.53    2091.102000
6824.17    2041.557000
6825.80    2059.410000
6827.44    2049.615000
6829.07    2114.176000
6830.70    2148.613000
6832.34    2155.184000
6833.97    2169.079000
6835.60    2162.644000
6837.24    2128.566000
6838.87    2062.269000
6840.51    2175.983000
6842.14    2171.594000
6843.77    2191.031000
6845.41    2281.786000
6847.04    2191.893000
6848.67    2185.218000
6850.31    2122.706000
6851.94    1879.177000
6853.58    1905.299000
6855.21    2022.315000
6856.84    2127.269000
6858.48    2116.122000
6860.11    2123.910000
6861.74    2073.564000
6863.38    2031.697000
6865.01    2176.043000
6866.65    2176.642000
6868.28    2237.359000
6869.91    2306.171000
6871.55    2206.272000
6873.18    2106.597000
6874.82    2103.889000
6876.45    2152.154000
6878.08    2068.282000
6879.72    2081.861000
6881.35    2107.940000
6882.98    2147.438000
6884.62    1996.806000
6886.25    2041.028000
6887.89    2010.191000
6889.52    1888.481000
6891.15    2021.058000
6892.79    2078.317000
6894.42    2093.656000
6896.06    2046.296000
6897.69    2028.898000
6899.32    1947.641000
6900.96    1931.427000
6902.59    2105.659000
6904.23    2157.814000
6905.86    2189.193000
6907.49    2173.648000
6909.13    2007.910000
6910.76    1931.430000
6912.40    2015.860000
6914.03    2120.741000
6915.66    2118.227000
6917.30    2013.779000
6918.93    2025.233000
6920.56    2091.572000
6922.20    2262.596000
6923.83    2234.390000
6925.47    2071.197000
6927.10    1839.829000
6928.73    1971.238000
6930.37    2029.398000
6932.00    2046.057000
6933.64    2026.873000
6935.27    2006.047000
6936.90    2061.234000
6938.54    2044.821000
6940.17    1947.428000
6941.80    2049.142000
6943.44    2058.194000
6945.07    2025.089000
6946.70    1932.576000
6948.34    2045.840000
6949.97    2085.187000
6951.61    2078.754000
6953.24    1990.902000
6954.88    2148.246000
6956.51    2077.068000
6958.14    1975.678000
6959.78    1886.275000
6961.41    2041.390000
6963.04    2045.135000
6964.68    2019.569000
6966.31    2040.710000
6967.94    1990.964000
6969.58    1930.928000
6971.21    1876.976000
6972.85    1934.249000
6974.48    2047.610000
6976.11    2049.892000
6977.75    1995.023000
6979.38    1977.274000
6981.02    2047.952000
6982.65    2039.084000
6984.28    1971.828000
6985.92    1935.472000
6987.55    1910.251000
6989.19    1901.097000
6990.82    1907.403000
6992.45    1937.441000
6994.09    1951.378000
6995.72    1957.180000
6997.35    1959.043000
6998.99    1960.425000
7000.62    1934.998000
7002.26    1932.889000
7003.89    1986.351000
7005.52    1937.240000
7007.16    1873.108000
7008.79    1846.736000
7010.43    1943.812000
7012.06    1915.343000
7013.69    1915.422000
7015.33    1923.101000
7016.96    1952.888000
7018.60    2013.845000
7020.23    2021.808000
7021.86    2001.149000
7023.50    1904.804000
7025.13    1950.716000
7026.76    1977.051000
7028.40    1994.838000
7030.03    2046.338000
7031.67    2012.790000
7033.30    1978.527000
7034.93    1937.732000
7036.57    1896.206000
7038.20    1951.037000
7039.84    1960.473000
7041.47    1928.366000
7043.10    1984.126000
7044.74    1962.630000
7046.37    1934.861000
7048.00    1905.305000
7049.64    1997.646000
7051.27    1981.017000
7052.90    1965.584000
7054.54    1968.860000
7056.17    2014.984000
7057.81    2030.989000
7059.44    2030.979000
7061.07    2007.287000
7062.71    1936.953000
7064.34    1897.309000
7065.98    1888.004000
7067.61    1979.147000
7069.24    1907.840000
7070.88    1862.003000
7072.51    1837.069000
7074.15    1917.927000
7075.78    2003.537000
7077.41    2047.094000
7079.05    2066.192000
7080.68    2024.231000
7082.31    1998.796000
7083.95    1978.140000
7085.58    1952.661000
7087.22    1897.661000
7088.85    1874.662000
7090.48    1842.834000
7092.12    1796.982000
7093.75    1859.424000
7095.39    1897.666000
7097.02    1903.305000
7098.65    1869.477000
7100.29    1898.600000
7101.92    1948.753000
7103.56    1975.635000
7105.19    1967.978000
7106.82    2067.670000
7108.46    2029.823000
7110.09    1971.142000
7111.72    1898.318000
7113.36    1879.637000
7114.99    1890.480000
7116.63    1903.924000
7118.26    1919.438000
7119.89    1929.813000
7121.53    1929.273000
7123.16    1948.187000
7124.80    2101.027000
7126.43    1933.350000
7128.06    1888.224000
7129.70    1876.160000
7131.33    1791.880000
7132.96    1872.299000
7134.60    1898.182000
7136.23    1889.866000
7137.87    1827.369000
7139.50    1918.498000
7141.13    1939.296000
7142.77    1905.329000
7144.40    1869.445000
7146.03    1919.818000
7147.67    1952.034000
7149.30    1965.255000
7150.94    1924.189000
7152.57    1874.756000
7154.20    1856.838000
7155.84    1893.728000
7157.47    1868.836000
7159.10    1827.224000
7160.74    1791.592000
7162.37    1774.508000
7164.01    1839.690000
7165.64    1825.002000
7167.27    1792.905000
7168.91    1742.706000
7170.54    1798.787000
7172.18    1699.785000
7173.81    1617.039000
7175.44    1781.836000
7177.08    1656.071000
7178.71    1654.721000
7180.35    1684.331000
7181.98    1661.035000
7183.61    1642.080000
7185.25    1606.558000
7186.88    1577.966000
7188.52    1813.827000
7190.15    1731.649000
7191.78    1717.791000
7193.42    1747.789000
7195.05    1833.795000
7196.69    1759.489000
7198.32    1706.166000
7199.95    1669.054000
7201.59    1786.946000
7203.22    1771.911000
7204.85    1743.722000
7206.49    1703.747000
7208.12    1803.557000
7209.76    1756.242000
7211.39    1727.128000
7213.02    1752.273000
7214.66    1732.833000
7216.29    1670.094000
7217.92    1659.308000
7219.56    1817.539000
7221.19    1576.575000
7222.83    1635.067000
7224.46    1729.716000
7226.09    1743.916000
7227.73    1559.145000
7229.36    1522.418000
7230.99    1536.518000
7232.63    1620.995000
7234.26    1563.633000
7235.90    1509.708000
7237.53    1466.808000
7239.16    1583.802000
7240.80    1511.570000
7242.43    1592.657000
7244.07    1754.434000
7245.70    1571.520000
7247.33    1532.328000
7248.97    1462.325000
7250.60    1360.522000
7252.23    1544.015000
7253.87    1586.059000
7255.50    1561.477000
7257.14    1458.001000
7258.77    1426.210000
7260.40    1443.336000
7262.04    1498.323000
7263.67    1626.601000
7265.31    1536.386000
7266.94    1499.557000
7268.57    1487.532000
7270.21    1530.078000
7271.84    1498.218000
7273.48    1534.659000
7275.11    1543.405000
7276.74    1410.431000
7278.38    1516.950000
7280.01    1503.870000
7281.65    1473.640000
7283.28    1536.776000
7284.91    1627.273000
7286.55    1602.283000
7288.18    1550.178000
7289.81    1683.042000
7291.45    1623.346000
7293.08    1604.702000
7294.72    1598.366000
7296.35    1495.821000
7297.98    1503.493000
7299.62    1511.292000
7301.25    1518.204000
7302.89    1644.873000
7304.52    1634.016000
7306.15    1627.894000
7307.79    1625.994000
7309.42    1444.257000
7311.05    1368.438000
7312.69    1347.646000
7314.32    1409.886000
7315.95    1598.126000
7317.59    1649.243000
7319.22    1672.154000
7320.86    1668.602000
7322.49    1587.302000
7324.12    1486.995000
7325.76    1417.619000
7327.39    1461.307000
7329.03    1517.645000
7330.66    1457.216000
7332.29    1376.046000
7333.93    1340.134000
7335.56    1465.921000
7337.19    1473.318000
7338.83    1457.456000
7340.46    1582.898000
7342.10    1724.593000
7343.73    1664.413000
7345.36    1502.919000
7347.00    1411.636000
7348.63    1503.323000
7350.27    1559.395000
7351.90    1586.845000
7353.53    1410.905000
7355.17    1465.728000
7356.80    1519.331000
7358.44    1574.569000
7360.07    1496.892000
7361.70    1484.299000
7363.34    1492.836000
7364.97    1537.074000
7366.60    1595.820000
7368.24    1532.705000
7369.87    1496.779000
7371.51    1536.270000
7373.14    1590.692000
7374.77    1538.539000
7376.41    1495.829000
7378.04    1527.088000
7379.68    1530.433000
7381.31    1490.556000
7382.94    1452.540000
7384.58    1472.291000
7386.21    1506.462000
7387.85    1566.820000
7389.48    1623.140000
7391.11    1602.817000
7392.75    1516.998000
7394.38    1522.470000
7396.01    1563.708000
7397.65    1582.568000
7399.28    1570.582000
7400.91    1558.084000
7402.55    1542.527000
7404.18    1523.266000
7405.82    1569.164000
7407.45    1546.620000
7409.09    1461.018000
7410.72    1326.886000
7412.35    1316.266000
7413.99    1309.026000
7415.62    1308.839000
7417.25    1502.162000
7418.89    1469.332000
7420.52    1438.392000
7422.15    1433.934000
7423.79    1314.449000
7425.42    1407.385000
7427.06    1484.345000
7428.69    1469.778000
7430.32    1473.083000
7431.96    1442.398000
7433.59    1422.248000
7435.23    1474.064000
7436.86    1497.220000
7438.49    1442.073000
7440.13    1383.462000
7441.76    1452.762000
7443.40    1467.021000
7445.03    1493.738000
7446.66    1515.825000
7448.30    1442.989000
7449.93    1523.943000
7451.56    1524.417000
7453.20    1474.118000
7454.83    1384.614000
7456.47    1503.045000
7458.10    1526.401000
7459.73    1469.534000
7461.37    1425.707000
7463.00    1471.292000
7464.64    1514.961000
7466.27    1560.557000
7467.90    1554.753000
7469.54    1577.172000
7471.17    1541.439000
7472.81    1407.242000
7474.44    1425.406000
7476.07    1422.467000
7477.71    1444.767000
7479.34    1541.244000
7480.97    1571.463000
7482.61    1500.162000
7484.24    1416.537000
7485.88    1344.705000
7487.51    1337.986000
7489.14    1462.191000
7490.78    1577.049000
7492.41    1483.641000
7494.05    1505.751000
7495.68    1540.342000
7497.31    1568.444000
7498.95    1513.245000
7500.58    1438.185000
7502.21    1448.334000
7503.85    1492.446000
7505.48    1415.855000
7507.12    1394.303000
7508.75    1393.730000
7510.38    1406.852000
7512.02    1444.807000
7513.65    1381.919000
7515.28    1368.921000
7516.92    1407.604000
7518.55    1555.352000
7520.19    1517.338000
7521.82    1486.581000
7523.45    1477.288000
7525.09    1529.960000
7526.72    1489.073000
7528.35    1473.847000
7529.99    1535.631000
7531.62    1510.954000
7533.26    1473.436000
7534.89    1443.469000
7536.52    1446.693000
7538.16    1542.861000
7539.79    1531.698000
7541.43    1501.480000
7543.06    1504.039000
7544.69    1832.229000
7546.33    2440.459000
7547.96    3234.142000
7549.60    4602.304000
7551.23    4217.077000
7552.86     0.000000
7554.50     0.000000
7556.13     0.000000
7557.77     0.000000
7559.40     0.000000
7561.03     0.000000
7562.67     0.000000
7564.30     0.000000
7565.93     0.000000
7567.57     0.000000
7569.20     0.000000
7570.84     0.000000
7572.47     0.000000
7574.10     0.000000
7575.74     0.000000
7577.37     0.000000
7579.01     0.000000
7580.64     0.000000
7582.27     0.000000
7583.91     0.000000
7585.54     0.000000
7587.17     0.000000
7588.81     0.000000
7590.44     0.000000
7592.08     0.000000
7593.71     0.000000
7595.34     0.000000
7596.98     0.000000
