#Wavelength     Flux
#[Angstrom]   [Counts]
3913.05     0.000000
3914.68     0.000000
3916.32     0.000000
3917.95     0.000000
3919.59     0.000000
3921.23     0.000000
3922.86     0.000000
3924.50     0.000000
3926.14     0.000000
3927.77     0.000000
3929.41     0.000000
3931.04     0.000000
3932.68     0.000000
3934.32     0.000000
3935.95     0.000000
3937.59     0.000000
3939.22     0.000000
3940.86     0.000000
3942.50     0.000000
3944.13     0.000000
3945.77     0.000000
3947.41     0.000000
3949.04     0.000000
3950.68     0.000000
3952.31     0.000000
3953.95     0.000000
3955.59     0.000000
3957.22     0.000000
3958.86     0.000000
3960.49     0.000000
3962.13     0.000000
3963.77     0.000000
3965.40     0.000000
3967.04    2266.813000
3968.68    2302.250000
3970.31    2653.056000
3971.95    2558.864000
3973.59    2837.050000
3975.22    2916.589000
3976.86    2892.406000
3978.49    3038.590000
3980.13    2669.630000
3981.77    2418.364000
3983.40    2084.404000
3985.04    2136.494000
3986.67    1891.245000
3988.31    1678.511000
3989.95    1586.848000
3991.58    1546.183000
3993.22    1559.467000
3994.86    1253.324000
3996.49    1475.354000
3998.13    1642.195000
3999.76    2184.788000
4001.40    2337.867000
4003.04    2029.734000
4004.67    2228.069000
4006.31    2721.097000
4007.95    2688.831000
4009.58    2702.439000
4011.22    3088.497000
4012.85    3106.842000
4014.49    2969.206000
4016.13    2886.639000
4017.76    2643.211000
4019.40    2519.642000
4021.03    2460.907000
4022.67    2123.584000
4024.31    1816.222000
4025.94    1662.715000
4027.58    1270.229000
4029.22    1556.756000
4030.85    2000.137000
4032.49    2031.359000
4034.12    2326.995000
4035.76    2425.369000
4037.40    2821.189000
4039.03    3183.176000
4040.67    3088.718000
4042.30    3236.186000
4043.94    3194.630000
4045.58    3520.261000
4047.21    3534.093000
4048.85    3783.863000
4050.49    3988.569000
4052.12    3796.727000
4053.76    3699.272000
4055.39    3778.151000
4057.03    3940.385000
4058.67    3654.565000
4060.30    3765.782000
4061.94    4071.987000
4063.58    4049.492000
4065.21    3980.417000
4066.85    3967.380000
4068.49    3932.658000
4070.12    4057.275000
4071.76    4330.414000
4073.39    4123.057000
4075.03    4100.437000
4076.67    4111.806000
4078.30    4332.394000
4079.94    4282.125000
4081.57    4119.912000
4083.21    4050.025000
4084.85    4340.668000
4086.48    4220.060000
4088.12    4155.089000
4089.76    4159.104000
4091.39    3823.171000
4093.03    3895.446000
4094.66    4027.028000
4096.30    3831.342000
4097.94    4063.044000
4099.57    3977.917000
4101.21    3831.165000
4102.85    3708.160000
4104.48    3724.707000
4106.12    4080.603000
4107.75    3747.512000
4109.39    3738.197000
4111.03    3774.754000
4112.66    3888.269000
4114.30    4098.747000
4115.94    3702.372000
4117.57    3750.023000
4119.21    3975.821000
4120.84    3776.159000
4122.48    3568.928000
4124.12    3642.285000
4125.75    3691.902000
4127.39    3677.882000
4129.02    3500.750000
4130.66    3609.634000
4132.30    3751.149000
4133.93    3854.959000
4135.57    3888.704000
4137.20    3845.198000
4138.84    3770.532000
4140.48    3637.618000
4142.11    3801.550000
4143.75    4035.660000
4145.39    3912.043000
4147.02    3927.630000
4148.66    4330.368000
4150.30    4268.241000
4151.93    4230.840000
4153.57    4374.046000
4155.20    4338.195000
4156.84    4008.061000
4158.48    4025.252000
4160.11    3947.027000
4161.75    3652.961000
4163.39    3539.956000
4165.02    3748.179000
4166.66    3877.586000
4168.29    3763.915000
4169.93    3788.500000
4171.56    4126.026000
4173.20    4116.474000
4174.84    4172.661000
4176.47    4210.219000
4178.11    4132.760000
4179.75    3909.619000
4181.38    3840.130000
4183.02    3801.582000
4184.65    3930.141000
4186.29    3914.165000
4187.93    4077.837000
4189.56    3888.785000
4191.20    3879.164000
4192.84    3722.186000
4194.47    3650.964000
4196.11    3854.431000
4197.74    4130.341000
4199.38    4026.700000
4201.02    3811.430000
4202.65    3726.637000
4204.29    3956.492000
4205.93    3910.056000
4207.56    3656.357000
4209.20    3679.672000
4210.83    3842.612000
4212.47    3773.516000
4214.11    3774.551000
4215.74    3653.139000
4217.38    3689.051000
4219.02    3623.196000
4220.65    3732.446000
4222.29    3992.548000
4223.92    3997.022000
4225.56    4097.709000
4227.20    4065.104000
4228.83    4137.659000
4230.47    3871.714000
4232.10    3783.932000
4233.74    4044.707000
4235.38    4088.171000
4237.01    3829.725000
4238.65    3900.843000
4240.29    3744.043000
4241.92    3736.818000
4243.56    3841.434000
4245.19    3813.994000
4246.83    3856.051000
4248.47    4039.376000
4250.10    4165.685000
4251.74    4136.087000
4253.38    4153.841000
4255.01    3982.557000
4256.65    3921.120000
4258.28    3840.928000
4259.92    3837.706000
4261.56    3720.352000
4263.19    3915.491000
4264.83    3902.224000
4266.47    3753.002000
4268.10    3873.676000
4269.74    3981.612000
4271.37    4058.415000
4273.01    4083.998000
4274.65    4105.696000
4276.28    4215.770000
4277.92    4242.502000
4279.56    4365.754000
4281.19    4158.484000
4282.83    4158.494000
4284.46    4196.492000
4286.10    4140.127000
4287.74    3917.322000
4289.37    3760.631000
4291.01    3523.368000
4292.65    3621.083000
4294.28    3671.995000
4295.92    3831.649000
4297.55    4091.715000
4299.19    4028.707000
4300.83    3954.247000
4302.46    4152.452000
4304.10    4254.067000
4305.73    4307.215000
4307.37    4408.098000
4309.01    4327.918000
4310.64    4424.052000
4312.28    4457.437000
4313.92    4194.687000
4315.55    4156.549000
4317.19    4144.176000
4318.82    4316.821000
4320.46    4173.533000
4322.10    4003.664000
4323.73    4180.878000
4325.37    4361.336000
4327.01    4410.269000
4328.64    4437.049000
4330.28    4471.631000
4331.91    4518.371000
4333.55    4282.999000
4335.19    4253.569000
4336.82    4030.580000
4338.46    3837.192000
4340.10    3965.500000
4341.73    4189.278000
4343.37    4239.214000
4345.00    4310.525000
4346.64    4319.703000
4348.28    4237.183000
4349.91    4152.087000
4351.55    4149.450000
4353.19    4132.861000
4354.82    4080.578000
4356.46    4013.230000
4358.09    3965.877000
4359.73    3863.038000
4361.36    3700.142000
4363.00    3592.727000
4364.64    3502.937000
4366.27    3451.912000
4367.91    3243.865000
4369.55    3157.205000
4371.18    3029.671000
4372.82    3059.925000
4374.45    3260.241000
4376.09    3538.646000
4377.73    3791.036000
4379.36    4073.352000
4381.00    4246.978000
4382.64    4631.955000
4384.27    4675.902000
4385.91    4763.392000
4387.55    4747.071000
4389.18    4407.495000
4390.82    4423.743000
4392.45    4556.161000
4394.09    4756.438000
4395.73    4842.260000
4397.36    4960.626000
4399.00    4923.633000
4400.63    4921.916000
4402.27    4811.896000
4403.91    4614.817000
4405.54    4684.842000
4407.18    4742.894000
4408.81    4669.990000
4410.45    4684.963000
4412.09    4790.752000
4413.72    4917.844000
4415.36    4954.324000
4417.00    5020.446000
4418.63    5073.742000
4420.27    4997.155000
4421.90    5078.530000
4423.54    5067.616000
4425.18    5149.477000
4426.81    5103.228000
4428.45    5174.881000
4430.09    5188.417000
4431.72    5370.480000
4433.36    5330.665000
4434.99    5328.586000
4436.63    5068.782000
4438.27    5048.260000
4439.90    4977.708000
4441.54    4898.815000
4443.18    4913.122000
4444.81    4822.501000
4446.45    4684.032000
4448.08    4789.553000
4449.72    4533.650000
4451.36    4520.681000
4452.99    4519.764000
4454.63    4610.271000
4456.27    4642.603000
4457.90    4900.361000
4459.54    5109.840000
4461.17    5092.977000
4462.81    4930.959000
4464.45    4971.170000
4466.08    5158.805000
4467.72    5234.856000
4469.35    4948.186000
4470.99    4957.045000
4472.63    5069.106000
4474.26    5100.952000
4475.90    5081.683000
4477.54    5337.312000
4479.17    5383.126000
4480.81    5511.130000
4482.44    5610.333000
4484.08    5531.075000
4485.72    5539.074000
4487.35    5526.935000
4488.99    5703.516000
4490.62    5558.740000
4492.26    5537.090000
4493.90    5643.996000
4495.53    5725.732000
4497.17    5478.384000
4498.81    5609.900000
4500.44    5587.965000
4502.08    5610.830000
4503.72    5587.499000
4505.35    5661.458000
4506.99    5724.848000
4508.62    5774.834000
4510.26    6190.811000
4511.90    5973.144000
4513.53    5842.745000
4515.17    5933.576000
4516.81    5757.788000
4518.44    6097.314000
4520.08    5925.146000
4521.71    5460.441000
4523.35    5496.376000
4524.99    5494.948000
4526.62    5482.191000
4528.26    5635.088000
4529.90    5521.046000
4531.53    5391.063000
4533.17    5722.089000
4534.80    5802.849000
4536.44    5863.858000
4538.08    6076.297000
4539.71    6040.333000
4541.35    6014.292000
4542.98    6237.857000
4544.62    6327.288000
4546.26    6328.751000
4547.89    6346.858000
4549.53    6534.487000
4551.17    6262.300000
4552.80    6228.152000
4554.44    6374.248000
4556.07    6362.896000
4557.71    6271.751000
4559.35    6142.207000
4560.98    6240.869000
4562.62    6260.780000
4564.26    6175.409000
4565.89    6422.094000
4567.53    6447.152000
4569.16    6575.889000
4570.80    6699.404000
4572.44    6843.312000
4574.07    6701.409000
4575.71    6926.044000
4577.35    6871.990000
4578.98    6884.268000
4580.62    6658.023000
4582.25    6888.073000
4583.89    6921.153000
4585.53    6581.319000
4587.16    6717.547000
4588.80    6708.612000
4590.43    6557.900000
4592.07    6442.754000
4593.71    6052.920000
4595.34    6038.266000
4596.98    5785.866000
4598.61    5968.020000
4600.25    5827.248000
4601.89    6084.303000
4603.52    5961.299000
4605.16    6098.179000
4606.80    6327.745000
4608.43    6368.592000
4610.07    6270.625000
4611.70    6170.160000
4613.34    6452.569000
4614.98    6357.280000
4616.61    6580.477000
4618.25    6297.734000
4619.89    6499.685000
4621.52    6672.396000
4623.16    6542.081000
4624.79    6612.995000
4626.43    6589.177000
4628.07    6852.520000
4629.70    6828.588000
4631.34    7025.223000
4632.98    7015.377000
4634.61    6996.170000
4636.25    7131.527000
4637.88    7120.722000
4639.52    6716.683000
4641.16    7054.170000
4642.79    6834.195000
4644.43    6907.649000
4646.06    6918.569000
4647.70    7090.900000
4649.34    6566.823000
4650.97    6835.562000
4652.61    6748.937000
4654.25    6447.530000
4655.88    6934.941000
4657.52    6637.217000
4659.15    7120.331000
4660.79    6719.275000
4662.43    7052.250000
4664.06    6906.683000
4665.70    6835.958000
4667.34    6870.508000
4668.97    6853.609000
4670.61    6913.835000
4672.24    6817.677000
4673.88    6718.676000
4675.52    6884.702000
4677.15    6990.076000
4678.79    7217.803000
4680.43    7193.602000
4682.06    7273.127000
4683.70    7111.875000
4685.33    7334.525000
4686.97    7318.250000
4688.61    7328.135000
4690.24    7434.875000
4691.88    7431.789000
4693.52    7424.000000
4695.15    7312.558000
4696.79    7269.039000
4698.42    7196.860000
4700.06    7339.467000
4701.70    7309.500000
4703.33    7152.970000
4704.97    6998.232000
4706.60    7123.876000
4708.24    7028.917000
4709.88    6872.181000
4711.51    7000.170000
4713.15    7053.401000
4714.79    6675.339000
4716.42    6888.262000
4718.06    6956.634000
4719.69    6688.933000
4721.33    6672.854000
4722.97    6740.401000
4724.60    6801.630000
4726.24    6999.169000
4727.88    7172.310000
4729.51    7010.269000
4731.15    7019.383000
4732.78    6806.634000
4734.42    6870.681000
4736.06    6755.390000
4737.69    6741.147000
4739.33    6883.548000
4740.97    6668.616000
4742.60    6783.035000
4744.24    6806.194000
4745.87    6917.356000
4747.51    6944.660000
4749.15    6821.225000
4750.78    6789.994000
4752.42    6873.780000
4754.06    6857.468000
4755.69    6764.312000
4757.33    6839.410000
4758.96    6921.085000
4760.60    6869.862000
4762.24    6982.166000
4763.87    6996.399000
4765.51    6799.784000
4767.15    6783.683000
4768.78    6724.220000
4770.42    6819.850000
4772.05    6783.320000
4773.69    6846.752000
4775.33    6816.792000
4776.96    6734.242000
4778.60    6550.675000
4780.23    6736.547000
4781.87    6937.356000
4783.51    6882.230000
4785.14    7031.012000
4786.78    7181.894000
4788.41    7242.000000
4790.05    7154.183000
4791.69    7345.096000
4793.32    7780.547000
4794.96    7502.426000
4796.60    7283.943000
4798.23    7476.257000
4799.87    7408.992000
4801.51    7208.096000
4803.14    7021.940000
4804.78    7239.105000
4806.41    7114.793000
4808.05    7128.312000
4809.69    7324.442000
4811.32    7404.723000
4812.96    7298.031000
4814.59    7363.154000
4816.23    7669.845000
4817.87    7828.321000
4819.50    7592.307000
4821.14    7735.590000
4822.77    7825.067000
4824.41    7620.823000
4826.05    7416.115000
4827.68    7449.830000
4829.32    7493.125000
4830.96    7410.847000
4832.59    7390.769000
4834.23    7255.545000
4835.86    7105.351000
4837.50    7251.910000
4839.14    7331.867000
4840.77    7278.569000
4842.41    7272.178000
4844.05    7452.121000
4845.68    7510.977000
4847.32    7429.593000
4848.95    7381.226000
4850.59    7548.151000
4852.23    7581.828000
4853.86    7240.370000
4855.50    7343.904000
4857.14    7420.913000
4858.77    7343.932000
4860.41    7391.570000
4862.04    7663.000000
4863.68    7707.800000
4865.32    7616.417000
4866.95    7599.014000
4868.59    7683.426000
4870.23    7839.051000
4871.86    7648.308000
4873.50    7750.964000
4875.13    7700.470000
4876.77    7781.991000
4878.41    7762.795000
4880.04    7641.217000
4881.68    7651.488000
4883.31    7644.697000
4884.95    7763.325000
4886.59    7832.095000
4888.22    7780.966000
4889.86    7652.070000
4891.50    7793.774000
4893.13    7902.681000
4894.77    8025.436000
4896.40    7867.817000
4898.04    7848.090000
4899.68    7827.489000
4901.31    7548.163000
4902.95    7459.300000
4904.59    7795.270000
4906.22    7800.327000
4907.86    7476.479000
4909.49    7465.042000
4911.13    7596.680000
4912.77    7499.359000
4914.40    7521.080000
4916.04    7687.910000
4917.68    7629.905000
4919.31    7476.391000
4920.95    7530.447000
4922.58    7711.608000
4924.22    7449.992000
4925.86    7349.845000
4927.49    7230.156000
4929.13    7023.773000
4930.77    7022.667000
4932.40    6923.889000
4934.04    6961.577000
4935.67    6786.094000
4937.31    6818.404000
4938.95    6733.560000
4940.58    6697.696000
4942.22    6822.877000
4943.85    6991.609000
4945.49    6830.213000
4947.13    7024.024000
4948.76    7239.345000
4950.40    7149.835000
4952.04    7219.512000
4953.67    7396.010000
4955.31    7538.697000
4956.94    7290.368000
4958.58    7309.967000
4960.22    7207.407000
4961.85    7152.069000
4963.49    7294.610000
4965.12    7424.571000
4966.76    7542.251000
4968.40    7983.920000
4970.03    7893.229000
4971.67    7485.347000
4973.31    7870.009000
4974.94    7946.565000
4976.58    8104.566000
4978.22    7868.735000
4979.85    8082.129000
4981.49    7719.007000
4983.12    7707.062000
4984.76    7666.485000
4986.40    7594.558000
4988.03    7508.394000
4989.67    7708.745000
4991.31    7539.045000
4992.94    7357.002000
4994.58    7276.241000
4996.21    7192.989000
4997.85    7543.437000
4999.49    7464.419000
5001.12    7610.769000
5002.76    7837.297000
5004.39    7802.610000
5006.03    7812.583000
5007.67    7763.175000
5009.30    7947.853000
5010.94    7949.368000
5012.57    7509.823000
5014.21    7608.818000
5015.85    7966.455000
5017.48    7823.168000
5019.12    8021.023000
5020.76    8293.505000
5022.39    8179.373000
5024.03    7950.567000
5025.66    8145.579000
5027.30    8084.648000
5028.94    8058.444000
5030.57    7822.844000
5032.21    7532.461000
5033.85    7618.169000
5035.48    7650.622000
5037.12    7625.528000
5038.75    7553.088000
5040.39    7578.705000
5042.03    7498.198000
5043.66    7646.970000
5045.30    7548.830000
5046.94    7623.420000
5048.57    7482.015000
5050.21    7617.160000
5051.84    7591.961000
5053.48    7473.604000
5055.12    7324.554000
5056.75    7164.196000
5058.39    7200.247000
5060.02    7268.849000
5061.66    7353.517000
5063.30    7309.253000
5064.93    7389.359000
5066.57    7323.920000
5068.21    7369.228000
5069.84    7489.287000
5071.48    7371.734000
5073.11    7452.476000
5074.75    7436.772000
5076.39    7182.930000
5078.02    7113.939000
5079.66    6912.273000
5081.30    7175.512000
5082.93    7106.959000
5084.57    7073.475000
5086.20    6941.785000
5087.84    7066.743000
5089.48    7020.320000
5091.11    7066.195000
5092.75    6857.404000
5094.39    6844.673000
5096.02    6997.843000
5097.66    6983.371000
5099.29    7001.999000
5100.93    7018.310000
5102.57    7278.580000
5104.20    7350.062000
5105.84    7438.912000
5107.48    7253.682000
5109.11    7234.701000
5110.75    7388.201000
5112.38    7216.995000
5114.02    7245.625000
5115.66    7311.573000
5117.29    7122.093000
5118.93    7135.998000
5120.56    7189.431000
5122.20    7212.273000
5123.84    7198.388000
5125.47    7223.450000
5127.11    7327.519000
5128.75    7468.792000
5130.38    7471.490000
5132.02    7461.348000
5133.65    7412.680000
5135.29    7587.696000
5136.93    7712.010000
5138.56    7534.863000
5140.20    7616.751000
5141.84    7462.555000
5143.47    7377.522000
5145.11    7472.738000
5146.74    7280.161000
5148.38    7280.899000
5150.02    7335.290000
5151.65    7251.672000
5153.29    7081.509000
5154.93    7117.692000
5156.56    7127.799000
5158.20    7083.488000
5159.83    6929.073000
5161.47    6888.611000
5163.11    7106.090000
5164.74    7277.336000
5166.38    7257.352000
5168.02    7476.081000
5169.65    7529.507000
5171.29    7378.476000
5172.92    7136.444000
5174.56    7302.932000
5176.20    7137.630000
5177.83    7047.854000
5179.47    7094.060000
5181.10    7112.314000
5182.74    7206.880000
5184.38    7080.168000
5186.01    7164.836000
5187.65    7328.345000
5189.29    7159.366000
5190.92    7491.656000
5192.56    7454.931000
5194.19    7295.639000
5195.83    7339.925000
5197.47    7385.823000
5199.10    7308.381000
5200.74    7342.681000
5202.38    7029.107000
5204.01    6863.522000
5205.65    6867.500000
5207.28    6975.483000
5208.92    7112.718000
5210.56    7036.786000
5212.19    7026.634000
5213.83    7171.609000
5215.47    7101.694000
5217.10    6956.368000
5218.74    7036.683000
5220.37    6983.124000
5222.01    7028.103000
5223.65    6591.217000
5225.28    6832.264000
5226.92    6621.900000
5228.56    6690.984000
5230.19    6925.718000
5231.83    7111.678000
5233.46    6918.472000
5235.10    6957.183000
5236.73    6638.072000
5238.37    6743.361000
5240.01    6693.263000
5241.64    6587.502000
5243.28    6239.504000
5244.92    5985.202000
5246.55    5642.315000
5248.19    5734.344000
5249.82    5519.850000
5251.46    5505.843000
5253.10    5766.300000
5254.73    5657.668000
5256.37    6016.871000
5258.01    5936.430000
5259.64    5870.824000
5261.28    5943.450000
5262.91    5942.591000
5264.55    6103.285000
5266.19    6174.321000
5267.82    6412.824000
5269.46    6577.500000
5271.10    6756.336000
5272.73    6836.350000
5274.37    6916.259000
5276.00    6952.252000
5277.64    7053.732000
5279.28    6955.704000
5280.91    6938.222000
5282.55    7142.376000
5284.19    6941.205000
5285.82    6774.717000
5287.46    6816.498000
5289.09    6987.758000
5290.73    6878.610000
5292.37    6956.808000
5294.00    7088.593000
5295.64    7314.116000
5297.27    7563.656000
5298.91    7711.872000
5300.55    7572.831000
5302.18    7349.427000
5303.82    7436.296000
5305.46    7404.984000
5307.09    7187.401000
5308.73    7347.104000
5310.36    7503.376000
5312.00    7582.371000
5313.64    7677.072000
5315.27    7537.388000
5316.91    7606.882000
5318.55    7952.146000
5320.18    7935.501000
5321.82    7879.229000
5323.45    7932.046000
5325.09    7767.806000
5326.73    7836.382000
5328.36    7773.742000
5330.00    7629.012000
5331.64    7607.020000
5333.27    7636.211000
5334.91    7793.581000
5336.54    7773.106000
5338.18    7572.471000
5339.82    7480.815000
5341.45    7318.272000
5343.09    7180.425000
5344.73    6961.861000
5346.36    6855.350000
5348.00    6795.226000
5349.63    6737.411000
5351.27    6910.098000
5352.91    7200.878000
5354.54    7352.934000
5356.18    7416.568000
5357.81    7682.201000
5359.45    7681.721000
5361.09    7919.258000
5362.72    7914.967000
5364.36    7967.873000
5366.00    8129.098000
5367.63    8372.087000
5369.27    8447.188000
5370.90    8119.483000
5372.54    8409.198000
5374.18    8338.098000
5375.81    8040.308000
5377.45    7994.036000
5379.09    7991.172000
5380.72    8080.099000
5382.36    7958.648000
5383.99    8160.298000
5385.63    8087.554000
5387.27    8456.197000
5388.90    8475.310000
5390.54    8615.440000
5392.18    8589.938000
5393.81    8462.013000
5395.45    8560.752000
5397.08    8489.727000
5398.72    8365.022000
5400.36    8203.148000
5401.99    8378.175000
5403.63    7858.540000
5405.27    7526.271000
5406.90    7622.485000
5408.54    7756.495000
5410.17    7512.879000
5411.81    7767.888000
5413.45    7932.527000
5415.08    7947.959000
5416.72    7830.412000
5418.35    7849.877000
5419.99    8057.814000
5421.63    8012.404000
5423.26    8032.231000
5424.90    8048.573000
5426.53    7970.244000
5428.17    8018.095000
5429.81    8125.675000
5431.44    8327.396000
5433.08    8260.590000
5434.72    8448.689000
5436.35    8518.043000
5437.99    8370.928000
5439.62    8628.183000
5441.26    8518.131000
5442.90    8493.463000
5444.53    8528.310000
5446.17    8586.397000
5447.81    8222.576000
5449.44    8109.223000
5451.08    8054.343000
5452.72    7960.973000
5454.35    8221.652000
5455.99    8028.240000
5457.62    7963.936000
5459.26    8201.684000
5460.90    8297.025000
5462.53    8297.437000
5464.17    8358.694000
5465.80    8280.750000
5467.44    8216.599000
5469.08    8126.316000
5470.71    8081.622000
5472.35    8043.303000
5473.98    7711.026000
5475.62    7791.244000
5477.26    8010.601000
5478.89    7823.359000
5480.53    7748.747000
5482.17    7752.340000
5483.80    7601.338000
5485.44    7543.883000
5487.07    7537.681000
5488.71    7440.495000
5490.35    7598.596000
5491.98    7711.019000
5493.62    7767.952000
5495.26    7965.933000
5496.89    7958.852000
5498.53    8035.743000
5500.16    8242.799000
5501.80    8252.139000
5503.44    8298.602000
5505.07    8144.019000
5506.71    8204.688000
5508.35    8161.525000
5509.98    8152.512000
5511.62    8197.598000
5513.25    8264.854000
5514.89    7981.647000
5516.53    7994.711000
5518.16    7887.244000
5519.80    8321.760000
5521.44    8336.802000
5523.07    8191.867000
5524.71    8177.099000
5526.34    8135.713000
5527.98    8311.726000
5529.62    8216.939000
5531.25    7934.317000
5532.89    7998.934000
5534.52    7825.512000
5536.16    7960.214000
5537.80    7999.025000
5539.43    7864.665000
5541.07    7853.790000
5542.71    7810.026000
5544.34    7670.760000
5545.98    7926.492000
5547.61    7937.654000
5549.25    7832.030000
5550.89    7843.897000
5552.52    7867.386000
5554.16    7980.111000
5555.80    7879.891000
5557.43    7884.571000
5559.07    7725.435000
5560.70    7659.140000
5562.34    7872.573000
5563.98    7885.423000
5565.61    7837.559000
5567.25    7841.847000
5568.89    7824.788000
5570.52    7717.113000
5572.16    6973.201000
5573.79    5366.997000
5575.43    5823.285000
5577.07    8272.513000
5578.70    11456.040000
5580.34    13240.730000
5581.98    12680.730000
5583.61    10679.350000
5585.25    8914.562000
5586.88    8071.614000
5588.52    7803.217000
5590.16    3544.951000
5591.79    7881.074000
5593.43    7624.551000
5595.06    7714.375000
5596.70    7780.139000
5598.34    7825.392000
5599.97    8006.982000
5601.61    8052.523000
5603.24    7966.991000
5604.88    7768.736000
5606.52    7783.891000
5608.15    7763.262000
5609.79    7710.897000
5611.43    7620.381000
5613.06    7722.723000
5614.70    7904.372000
5616.34    7949.689000
5617.97    7816.401000
5619.61    7805.425000
5621.24    7949.825000
5622.88    8089.596000
5624.52    8253.351000
5626.15    8170.179000
5627.79    8077.614000
5629.43    8046.901000
5631.06    8230.769000
5632.70    8332.592000
5634.33    8366.883000
5635.97    8357.214000
5637.60    8267.113000
5639.24    8268.135000
5640.88    8100.433000
5642.51    7854.494000
5644.15    7521.422000
5645.79    7587.228000
5647.42    7735.610000
5649.06    7905.351000
5650.69    8026.326000
5652.33    7870.301000
5653.97    7772.491000
5655.60    7698.898000
5657.24    7885.917000
5658.88    8008.419000
5660.51    8041.496000
5662.15    7996.057000
5663.78    8113.963000
5665.42    7924.278000
5667.06    7849.175000
5668.69    7950.386000
5670.33    7786.761000
5671.97    7593.903000
5673.60    7432.661000
5675.24    7357.470000
5676.88    7453.643000
5678.51    7485.210000
5680.15    7504.250000
5681.78    7533.257000
5683.42    7536.203000
5685.06    7373.653000
5686.69    7269.043000
5688.33    7561.402000
5689.96    7827.449000
5691.60    7921.122000
5693.24    7950.829000
5694.87    7926.391000
5696.51    8021.036000
5698.15    8019.485000
5699.78    7946.897000
5701.42    7753.007000
5703.05    7581.669000
5704.69    7647.623000
5706.33    7835.682000
5707.96    7839.930000
5709.60    7676.458000
5711.23    7652.109000
5712.87    7741.429000
5714.51    7627.046000
5716.14    7642.089000
5717.78    7695.180000
5719.42    7812.936000
5721.05    7966.473000
5722.69    7832.773000
5724.32    7701.009000
5725.96    7619.804000
5727.60    7667.036000
5729.23    7743.696000
5730.87    7806.266000
5732.51    7854.549000
5734.14    7605.139000
5735.78    7573.182000
5737.41    7635.807000
5739.05    7951.728000
5740.69    7614.309000
5742.32    7401.222000
5743.96    7268.168000
5745.60    7447.529000
5747.23    7645.194000
5748.87    7735.831000
5750.50    7782.787000
5752.14    7925.304000
5753.78    7879.767000
5755.41    7803.008000
5757.05    7707.754000
5758.69    7872.261000
5760.32    7852.190000
5761.96    7768.868000
5763.59    7620.639000
5765.23    7973.572000
5766.87    7719.522000
5768.50    7597.166000
5770.14    7605.906000
5771.77    7876.283000
5773.41    7730.865000
5775.05    7706.806000
5776.68    7926.811000
5778.32    7825.485000
5779.96    7673.208000
5781.59    7550.598000
5783.23    7510.290000
5784.86    7689.242000
5786.50    7775.933000
5788.14    7801.053000
5789.77    7711.312000
5791.41    7536.810000
5793.05    7511.957000
5794.68    7498.458000
5796.32    7414.656000
5797.95    7637.750000
5799.59    7781.722000
5801.23    7878.349000
5802.86    7918.941000
5804.50    8027.365000
5806.14    8098.507000
5807.77    8150.683000
5809.41    8301.334000
5811.04    8285.021000
5812.68    8198.247000
5814.32    8043.501000
5815.95    7967.735000
5817.59    8097.073000
5819.23    8215.231000
5820.86    8332.473000
5822.50    8387.588000
5824.13    8311.293000
5825.77    8233.142000
5827.40    8186.600000
5829.04    8042.927000
5830.68    8144.364000
5832.31    8241.490000
5833.95    8327.871000
5835.59    8129.784000
5837.22    8152.067000
5838.86    8184.244000
5840.49    8204.567000
5842.13    8071.673000
5843.77    8107.247000
5845.40    8141.390000
5847.04    8062.465000
5848.68    8181.233000
5850.31    8213.797000
5851.95    8203.143000
5853.59    8193.437000
5855.22    8059.269000
5856.86    7947.781000
5858.49    7832.493000
5860.13    7744.024000
5861.77    7965.222000
5863.40    8009.489000
5865.04    7933.342000
5866.67    7863.204000
5868.31    7667.104000
5869.95    7656.471000
5871.58    7810.668000
5873.22    7950.256000
5874.85    7935.145000
5876.49    7911.513000
5878.13    7910.981000
5879.76    7554.176000
5881.40    7556.034000
5883.04    7566.140000
5884.67    7577.220000
5886.31    7929.223000
5887.94    7871.405000
5889.58    7733.708000
5891.22    7522.059000
5892.85    7669.029000
5894.49    7747.292000
5896.13    7799.843000
5897.76    7834.959000
5899.40    7909.430000
5901.03    8092.743000
5902.67    8251.036000
5904.31    8186.819000
5905.94    8224.950000
5907.58    8026.115000
5909.22    7744.243000
5910.85    7722.188000
5912.49    7818.672000
5914.12    7846.090000
5915.76    7832.413000
5917.40    7992.322000
5919.03    7968.411000
5920.67    7920.885000
5922.31    7832.128000
5923.94    7982.886000
5925.58    7969.771000
5927.21    7994.259000
5928.85    8068.169000
5930.49    7965.354000
5932.12    7889.552000
5933.76    7960.221000
5935.40    8295.216000
5937.03    8097.389000
5938.67    7989.376000
5940.30    7937.894000
5941.94    8025.724000
5943.58    7340.252000
5945.21    7307.255000
5946.85    7402.574000
5948.48    7622.925000
5950.12    7503.916000
5951.76    7570.424000
5953.39    7662.591000
5955.03    7742.086000
5956.67    7697.409000
5958.30    7714.456000
5959.94    7747.049000
5961.57    7799.803000
5963.21    7794.968000
5964.85    7826.145000
5966.48    7833.283000
5968.12    7353.796000
5969.76    7084.275000
5971.39    6977.634000
5973.03    6962.609000
5974.66    6909.178000
5976.30    6779.473000
5977.94    6615.455000
5979.57    6408.596000
5981.21    6078.703000
5982.85    6131.289000
5984.48    6196.110000
5986.12    6285.954000
5987.75    6242.612000
5989.39    6552.741000
5991.03    6846.612000
5992.66    7107.326000
5994.30    7262.020000
5995.94    7340.578000
5997.57    7395.437000
5999.21    7440.063000
6000.84    7603.596000
6002.48    7533.039000
6004.12    7443.370000
6005.75    7562.166000
6007.39    7601.526000
6009.02    7534.732000
6010.66    7460.830000
6012.30    7640.229000
6013.93    7568.515000
6015.57    7486.646000
6017.20    7399.833000
6018.84    7488.234000
6020.48    7562.205000
6022.11    7555.005000
6023.75    7478.913000
6025.39    7420.822000
6027.02    7553.496000
6028.66    7651.548000
6030.30    7733.546000
6031.93    7865.691000
6033.57    7843.530000
6035.20    7732.760000
6036.84    7513.900000
6038.48    7538.338000
6040.11    7646.820000
6041.75    7705.142000
6043.39    7693.011000
6045.02    7556.494000
6046.66    7693.387000
6048.29    7770.287000
6049.93    7630.932000
6051.56    7636.595000
6053.20    7496.853000
6054.84    7433.657000
6056.48    7847.527000
6058.11    7964.647000
6059.75    7963.783000
6061.38    7901.583000
6063.02    7721.002000
6064.65    7648.503000
6066.29    7689.993000
6067.93    7779.565000
6069.56    7967.710000
6071.20    7660.468000
6072.84    7578.836000
6074.47    7607.602000
6076.11    7625.124000
6077.74    7524.511000
6079.38    7560.744000
6081.02    7711.507000
6082.65    7874.004000
6084.29    7753.565000
6085.93    7647.924000
6087.56    7555.697000
6089.20    7615.867000
6090.84    7553.553000
6092.47    7533.835000
6094.11    7621.246000
6095.74    7701.424000
6097.38    7484.503000
6099.02    7346.998000
6100.65    7484.947000
6102.29    7448.416000
6103.92    7244.306000
6105.56    7110.010000
6107.20    7371.362000
6108.83    7278.832000
6110.47    7334.629000
6112.10    7428.293000
6113.74    7562.039000
6115.38    7696.584000
6117.01    7643.034000
6118.65    7519.250000
6120.29    7486.438000
6121.92    7603.868000
6123.56    7610.020000
6125.19    7552.229000
6126.83    7649.125000
6128.47    8000.079000
6130.10    8068.307000
6131.74    7917.085000
6133.38    7853.049000
6135.01    7576.910000
6136.65    7586.018000
6138.28    7896.234000
6139.92    7961.053000
6141.56    7894.678000
6143.19    7847.325000
6144.83    7858.377000
6146.47    7807.055000
6148.10    7605.580000
6149.74    7460.079000
6151.37    7473.352000
6153.01    7763.792000
6154.65    7756.676000
6156.28    7683.785000
6157.92    7588.005000
6159.56    7688.255000
6161.19    7800.681000
6162.83    7919.084000
6164.46    8088.636000
6166.10    7904.187000
6167.74    7920.664000
6169.37    7955.051000
6171.01    7693.003000
6172.65    7534.313000
6174.28    7477.092000
6175.92    7461.801000
6177.55    7582.778000
6179.19    7473.763000
6180.83    7469.940000
6182.46    7524.358000
6184.10    7546.812000
6185.73    7534.819000
6187.37    7517.434000
6189.01    7487.222000
6190.64    7509.798000
6192.28    7550.138000
6193.92    7538.930000
6195.55    7479.041000
6197.19    7469.024000
6198.82    7446.505000
6200.46    7391.021000
6202.10    7288.215000
6203.73    7214.950000
6205.37    7290.273000
6207.01    7369.453000
6208.64    7462.161000
6210.28    7384.292000
6211.91    7362.475000
6213.55    7369.055000
6215.19    7479.568000
6216.82    7528.642000
6218.46    7511.463000
6220.10    7441.390000
6221.73    7212.208000
6223.37    7220.263000
6225.00    7243.582000
6226.64    7246.838000
6228.28    7079.872000
6229.91    7096.937000
6231.55    7245.312000
6233.19    7453.317000
6234.82    7145.603000
6236.46    7261.762000
6238.09    7350.072000
6239.73    7417.142000
6241.36    7326.862000
6243.00    7129.259000
6244.64    7062.084000
6246.27    7180.212000
6247.91    7300.396000
6249.55    7337.391000
6251.18    7224.925000
6252.82    6860.825000
6254.45    6817.061000
6256.09    6695.779000
6257.73    6624.755000
6259.36    6738.347000
6261.00    6685.074000
6262.64    6714.286000
6264.27    6781.651000
6265.91    6966.271000
6267.55    6891.439000
6269.18    6872.446000
6270.82    6845.922000
6272.45    6735.339000
6274.09    6708.626000
6275.73    6673.974000
6277.36    6627.374000
6279.00    6612.481000
6280.64    6447.157000
6282.27    6472.686000
6283.91    6611.582000
6285.54    7046.279000
6287.18    6849.246000
6288.81    6815.295000
6290.45    6882.438000
6292.09    6785.914000
6293.72    7051.171000
6295.36    7174.571000
6297.00    7142.450000
6298.63    6785.541000
6300.27    6695.020000
6301.90    6829.335000
6303.54    7347.736000
6305.18    7032.326000
6306.81    6817.369000
6308.45    6720.528000
6310.09    6905.886000
6311.72    6821.453000
6313.36    6629.754000
6314.99    6512.560000
6316.63    6715.887000
6318.27    6532.502000
6319.90    6618.442000
6321.54    6731.299000
6323.18    6690.757000
6324.81    6513.739000
6326.45    6424.642000
6328.08    6379.579000
6329.72    6544.108000
6331.36    6263.237000
6332.99    6299.826000
6334.63    6493.133000
6336.27    6744.689000
6337.90    6605.129000
6339.54    6538.674000
6341.17    6501.919000
6342.81    6649.883000
6344.45    6445.618000
6346.08    6336.069000
6347.72    6314.310000
6349.35    6456.646000
6350.99    6443.191000
6352.63    6445.829000
6354.26    6496.768000
6355.90    6610.344000
6357.54    6592.972000
6359.17    6642.942000
6360.81    6894.912000
6362.44    6550.466000
6364.08    6474.671000
6365.72    6552.285000
6367.35    7009.979000
6368.99    7103.979000
6370.63    7150.061000
6372.26    7120.573000
6373.90    6829.724000
6375.53    7035.164000
6377.17    7009.822000
6378.81    6926.678000
6380.44    7019.552000
6382.08    7029.213000
6383.72    6957.638000
6385.35    6854.316000
6386.99    6952.401000
6388.62    6800.122000
6390.26    6785.408000
6391.90    6838.427000
6393.53    6925.520000
6395.17    6831.058000
6396.81    6949.962000
6398.44    7275.973000
6400.08    6903.736000
6401.71    6847.342000
6403.35    6852.429000
6404.99    6955.890000
6406.62    6842.997000
6408.26    6796.859000
6409.90    6779.116000
6411.53    6840.799000
6413.17    6739.718000
6414.80    6806.091000
6416.44    6857.194000
6418.08    6839.208000
6419.71    6900.707000
6421.35    6946.874000
6422.98    6998.009000
6424.62    7109.281000
6426.26    6760.427000
6427.89    6847.195000
6429.53    7011.406000
6431.16    6958.542000
6432.80    6960.948000
6434.44    6966.621000
6436.07    6983.358000
6437.71    7174.160000
6439.35    6893.456000
6440.98    6802.354000
6442.62    6803.191000
6444.26    6961.045000
6445.89    6878.401000
6447.53    6800.306000
6449.16    6712.636000
6450.80    6886.823000
6452.44    6842.227000
6454.07    6788.788000
6455.71    6723.118000
6457.35    6549.083000
6458.98    6579.092000
6460.62    6604.905000
6462.25    6643.375000
6463.89    6892.374000
6465.52    6875.989000
6467.16    6831.828000
6468.80    6819.290000
6470.44    7021.383000
6472.07    6925.280000
6473.71    6821.658000
6475.34    6882.685000
6476.98    6932.770000
6478.61    6892.866000
6480.25    6852.276000
6481.89    6982.570000
6483.52    7013.505000
6485.16    6946.056000
6486.80    6849.963000
6488.43    6900.804000
6490.07    6828.056000
6491.70    6783.637000
6493.34    6737.424000
6494.98    6762.542000
6496.61    6845.320000
6498.25    6945.547000
6499.89    7048.030000
6501.52    6978.003000
6503.16    6811.969000
6504.80    6772.033000
6506.43    6863.187000
6508.07    6883.734000
6509.70    6914.896000
6511.34    6869.665000
6512.98    6733.851000
6514.61    6705.523000
6516.25    6742.408000
6517.88    6755.839000
6519.52    6745.281000
6521.16    6601.678000
6522.79    6815.378000
6524.43    6992.058000
6526.06    6924.979000
6527.70    7058.580000
6529.34    7100.162000
6530.97    7081.371000
6532.61    6920.844000
6534.25    6757.849000
6535.88    6907.508000
6537.52    7101.233000
6539.15    6883.304000
6540.79    6908.946000
6542.43    6934.156000
6544.06    6946.881000
6545.70    7018.421000
6547.34    6882.650000
6548.97    6927.411000
6550.61    7074.802000
6552.24    6895.743000
6553.88    6736.168000
6555.52    6774.557000
6557.15    7008.334000
6558.79    7131.643000
6560.43    7131.480000
6562.06    7016.175000
6563.70    6764.140000
6565.33    6776.501000
6566.97    6856.558000
6568.61    6835.473000
6570.24    6639.133000
6571.88    6944.255000
6573.52    6957.057000
6575.15    6988.771000
6576.79    7200.983000
6578.42    6872.215000
6580.06    6764.502000
6581.70    6728.519000
6583.33    6850.877000
6584.97    6750.577000
6586.60    6724.494000
6588.24    6707.541000
6589.88    6655.317000
6591.51    6640.296000
6593.15    6718.593000
6594.79    6798.653000
6596.42    6602.323000
6598.06    6784.959000
6599.69    6762.974000
6601.33    6605.173000
6602.97    6508.768000
6604.60    6610.238000
6606.24    6619.783000
6607.88    6553.269000
6609.51    6844.229000
6611.15    6834.328000
6612.78    6859.967000
6614.42    6964.210000
6616.06    6734.853000
6617.69    6792.845000
6619.33    6821.940000
6620.97    6810.700000
6622.60    6950.441000
6624.24    7027.598000
6625.87    7061.344000
6627.51    7023.803000
6629.15    6811.882000
6630.78    6800.413000
6632.42    6821.602000
6634.06    6872.642000
6635.69    6793.054000
6637.33    6785.807000
6638.96    6769.911000
6640.60    6635.854000
6642.24    6799.143000
6643.87    6877.902000
6645.51    6905.453000
6647.15    6884.691000
6648.78    6749.212000
6650.42    6663.005000
6652.05    6588.162000
6653.69    6518.832000
6655.32    6415.305000
6656.96    6371.192000
6658.60    6354.076000
6660.23    6331.526000
6661.87    6291.627000
6663.51    6208.304000
6665.14    6072.352000
6666.78    6587.283000
6668.41    6462.051000
6670.05    6356.051000
6671.69    6339.005000
6673.32    6569.663000
6674.96    6419.519000
6676.60    6355.525000
6678.23    6578.157000
6679.87    6598.808000
6681.51    6588.636000
6683.14    6609.236000
6684.78    6782.882000
6686.41    6745.771000
6688.05    6791.188000
6689.69    6828.774000
6691.32    6763.043000
6692.96    6686.180000
6694.60    6579.887000
6696.23    6473.759000
6697.87    6595.469000
6699.50    6584.083000
6701.14    6589.219000
6702.77    6595.941000
6704.41    6649.017000
6706.05    6570.377000
6707.68    6539.236000
6709.32    6524.729000
6710.96    6551.871000
6712.59    6579.082000
6714.23    6617.186000
6715.86    6675.224000
6717.50    6785.606000
6719.14    6559.925000
6720.77    6520.796000
6722.41    6793.480000
6724.05    6624.853000
6725.68    6606.548000
6727.32    6535.403000
6728.95    6340.808000
6730.59    6501.007000
6732.23    6373.313000
6733.86    6241.362000
6735.50    6229.194000
6737.14    6397.131000
6738.77    6310.228000
6740.41    6231.366000
6742.04    6451.069000
6743.68    6497.609000
6745.32    6485.253000
6746.95    6443.018000
6748.59    6423.549000
6750.23    6389.531000
6751.86    6393.570000
6753.50    6403.733000
6755.13    6387.410000
6756.77    6399.167000
6758.41    6379.458000
6760.04    6318.947000
6761.68    6083.106000
6763.31    6281.562000
6764.95    6340.544000
6766.59    6283.774000
6768.22    6494.493000
6769.86    6281.912000
6771.50    6147.037000
6773.13    6137.604000
6774.77    5954.205000
6776.40    6040.602000
6778.04    6130.878000
6779.68    6223.811000
6781.31    6280.192000
6782.95    6365.043000
6784.59    6383.063000
6786.22    6241.626000
6787.86    6412.937000
6789.49    6339.100000
6791.13    6281.688000
6792.77    6491.140000
6794.40    6386.250000
6796.04    6253.089000
6797.68    6126.552000
6799.31    6182.949000
6800.95    6253.560000
6802.58    6150.545000
6804.22    6008.203000
6805.86    6301.584000
6807.49    6181.455000
6809.13    6098.717000
6810.77    6017.786000
6812.40    5883.724000
6814.04    6040.364000
6815.67    6129.570000
6817.31    6163.182000
6818.95    5852.620000
6820.58    5930.579000
6822.22    5961.040000
6823.85    5941.390000
6825.49    5948.553000
6827.13    5963.021000
6828.76    5986.376000
6830.40    6040.942000
6832.04    5943.717000
6833.67    5911.561000
6835.31    5925.614000
6836.94    6061.901000
6838.58    6179.224000
6840.22    6105.572000
6841.85    6029.901000
6843.49    6074.757000
6845.12    6136.941000
6846.76    6065.747000
6848.40    5950.291000
6850.03    5848.604000
6851.67    5863.259000
6853.31    5935.781000
6854.94    5977.252000
6856.58    5615.256000
6858.22    5849.053000
6859.85    5860.824000
6861.49    5734.608000
6863.12    5415.550000
6864.76    5203.909000
6866.40    4937.228000
6868.03    4604.672000
6869.67    4251.644000
6871.31    4199.828000
6872.94    4225.051000
6874.58    4338.039000
6876.21    4577.976000
6877.85    4691.085000
6879.48    4955.473000
6881.12    5495.125000
6882.76    5409.623000
6884.40    5389.387000
6886.03    5301.641000
6887.67    5066.195000
6889.30    4846.579000
6890.94    4949.921000
6892.57    5034.300000
6894.21    4938.377000
6895.85    5011.225000
6897.48    4931.260000
6899.12    4866.015000
6900.76    5078.630000
6902.39    5205.753000
6904.03    5332.145000
6905.66    5456.365000
6907.30    5584.681000
6908.94    5572.193000
6910.57    5483.048000
6912.21    5359.356000
6913.85    5450.222000
6915.48    5415.519000
6917.12    5444.647000
6918.76    5508.777000
6920.39    5533.121000
6922.03    5430.829000
6923.66    5457.270000
6925.30    5615.183000
6926.94    5432.238000
6928.57    5493.680000
6930.21    5516.228000
6931.84    5493.970000
6933.48    5834.520000
6935.12    5781.895000
6936.75    5682.278000
6938.39    5550.340000
6940.02    5367.028000
6941.66    5489.506000
6943.30    5588.546000
6944.93    5542.628000
6946.57    5320.584000
6948.21    5275.053000
6949.84    5307.819000
6951.48    5571.446000
6953.11    5471.801000
6954.75    5492.789000
6956.39    5521.873000
6958.02    5411.855000
6959.66    5414.275000
6961.30    5493.812000
6962.93    5584.793000
6964.57    5505.253000
6966.20    5602.759000
6967.84    5629.869000
6969.48    5609.827000
6971.11    5640.366000
6972.75    5698.334000
6974.39    5803.104000
6976.02    5962.830000
6977.66    5680.470000
6979.29    5707.505000
6980.93    5742.122000
6982.57    5801.045000
6984.20    5594.814000
6985.84    5449.957000
6987.48    5335.615000
6989.11    5278.062000
6990.75    5399.804000
6992.38    5483.993000
6994.02    5537.134000
6995.66    5544.715000
6997.29    5477.096000
6998.93    5535.184000
7000.56    5602.814000
7002.20    5673.735000
7003.84    5453.646000
7005.47    5456.250000
7007.11    5538.657000
7008.75    5772.686000
7010.38    5676.050000
7012.02    5627.616000
7013.65    5596.820000
7015.29    5658.846000
7016.93    5626.098000
7018.56    5570.000000
7020.20    5490.356000
7021.84    5407.855000
7023.47    5334.928000
7025.11    5336.644000
7026.74    5386.200000
7028.38    5359.292000
7030.02    5450.435000
7031.65    5490.374000
7033.29    5468.026000
7034.93    5303.557000
7036.56    5289.021000
7038.20    5323.925000
7039.83    5452.189000
7041.47    5449.772000
7043.11    5487.772000
7044.74    5493.043000
7046.38    5433.040000
7048.02    5395.593000
7049.65    5533.131000
7051.29    5639.003000
7052.92    5600.014000
7054.56    5530.465000
7056.20    5522.165000
7057.83    5517.496000
7059.47    5487.874000
7061.10    5410.863000
7062.74    5409.107000
7064.38    5422.260000
7066.01    5415.291000
7067.65    5352.895000
7069.28    5401.160000
7070.92    5499.034000
7072.56    5581.036000
7074.19    5597.651000
7075.83    5538.931000
7077.47    5413.761000
7079.10    5238.087000
7080.74    5430.061000
7082.38    5498.132000
7084.01    5440.643000
7085.65    5227.269000
7087.28    5272.310000
7088.92    5335.314000
7090.56    5440.251000
7092.19    5585.229000
7093.83    5532.771000
7095.47    5476.855000
7097.10    5453.969000
7098.74    5478.008000
7100.37    5548.741000
7102.01    5606.524000
7103.65    5650.079000
7105.28    5575.948000
7106.92    5501.051000
7108.56    5448.150000
7110.19    5516.898000
7111.83    5497.020000
7113.46    5468.382000
7115.10    5429.681000
7116.73    5401.601000
7118.37    5271.152000
7120.01    5252.421000
7121.64    5269.278000
7123.28    5197.813000
7124.92    5155.241000
7126.55    5202.093000
7128.19    5296.039000
7129.82    5242.584000
7131.46    5269.979000
7133.10    5274.939000
7134.73    5256.778000
7136.37    5242.428000
7138.01    5265.142000
7139.64    5275.983000
7141.28    5289.102000
7142.91    5338.762000
7144.55    5321.123000
7146.19    5265.987000
7147.82    5157.896000
7149.46    5273.313000
7151.10    5263.760000
7152.73    5210.800000
7154.37    5107.769000
7156.00    5099.071000
7157.64    5117.802000
7159.28    5125.471000
7160.91    5090.156000
7162.55    4911.167000
7164.19    4767.034000
7165.82    4638.455000
7167.46    4600.037000
7169.09    4424.935000
7170.73    4266.206000
7172.37    4122.531000
7174.00    4172.188000
7175.64    4249.277000
7177.27    4243.551000
7178.91    4186.590000
7180.55    4185.454000
7182.18    4137.544000
7183.82    4094.045000
7185.46    4036.988000
7187.09    4078.986000
7188.73    4079.214000
7190.36    4020.778000
7192.00    3884.995000
7193.64    4032.854000
7195.27    3946.578000
7196.91    3902.231000
7198.55    3952.591000
7200.18    4021.923000
7201.82    3960.378000
7203.45    3917.513000
7205.09    3968.694000
7206.73    3953.372000
7208.36    4073.812000
7210.00    4211.210000
7211.64    4353.618000
7213.27    4271.731000
7214.91    4312.382000
7216.54    4369.119000
7218.18    4382.267000
7219.82    4393.064000
7221.45    4355.185000
7223.09    4303.168000
7224.73    4330.611000
7226.36    4238.961000
7228.00    4164.739000
7229.63    4084.802000
7231.27    3917.280000
7232.91    3844.438000
7234.54    3826.701000
7236.18    3831.848000
7237.81    3534.237000
7239.45    3480.635000
7241.09    3531.632000
7242.72    3697.801000
7244.36    3781.734000
7246.00    3765.295000
7247.63    3847.743000
7249.27    4105.150000
7250.90    3896.564000
7252.54    3839.088000
7254.18    3797.676000
7255.81    3782.030000
7257.45    3923.945000
7259.09    3889.965000
7260.72    3869.321000
7262.36    3979.254000
7263.99    3725.328000
7265.63    3832.572000
7267.27    3989.594000
7268.90    4034.732000
7270.54    3836.524000
7272.18    3757.237000
7273.81    3693.250000
7275.45    3502.370000
7277.08    3667.495000
7278.72    3751.153000
7280.36    3818.185000
7281.99    4174.765000
7283.63    4140.018000
7285.27    4124.179000
7286.90    4103.978000
7288.54    3959.243000
7290.17    3954.954000
7291.81    3905.413000
7293.44    3809.289000
7295.08    3786.413000
7296.72    3780.688000
7298.35    3808.580000
7299.99    3896.298000
7301.63    3665.208000
7303.26    3738.136000
7304.90    3807.309000
7306.53    3858.276000
7308.17    3940.666000
7309.81    3896.145000
7311.44    3833.709000
7313.08    3770.357000
7314.72    3763.552000
7316.35    3885.397000
7317.99    4027.021000
7319.62    4174.199000
7321.26    4008.213000
7322.90    4129.040000
7324.53    4274.752000
7326.17    4058.384000
7327.81    4119.519000
7329.44    4149.775000
7331.08    4154.814000
7332.72    4065.456000
7334.35    4207.090000
7335.99    4209.584000
7337.62    4119.436000
7339.26    4115.644000
7340.90    4264.306000
7342.53    4397.494000
7344.17    4528.911000
7345.80    4338.690000
7347.44    4312.218000
7349.08    4321.780000
7350.71    4389.523000
7352.35    4258.452000
7353.98    4255.716000
7355.62    4223.458000
7357.26    4145.505000
7358.89    4037.973000
7360.53    4102.382000
7362.17    4163.630000
7363.80    4189.143000
7365.44    4182.089000
7367.07    4196.916000
7368.71    4199.422000
7370.35    4165.227000
7371.98    4173.193000
7373.62    4195.988000
7375.26    4225.056000
7376.89    4289.274000
7378.53    4223.358000
7380.16    4219.413000
7381.80    4222.082000
7383.44    4112.711000
7385.07    4073.316000
7386.71    4107.442000
7388.35    4165.463000
7389.98    4096.127000
7391.62    3961.761000
7393.25    4034.766000
7394.89    4261.084000
7396.53    4184.787000
7398.16    4083.913000
7399.80    4066.518000
7401.44    4139.853000
7403.07    4207.663000
7404.71    4294.685000
7406.34    4328.750000
7407.98    4300.552000
7409.62    4147.446000
7411.25    4181.827000
7412.89    4233.116000
7414.52    4302.144000
7416.16    4127.007000
7417.80    4079.424000
7419.43    4111.082000
7421.07    4363.552000
7422.71    4363.205000
7424.34    4260.479000
7425.98    4172.855000
7427.61    4300.184000
7429.25    4355.140000
7430.89    4287.458000
7432.52    4184.874000
7434.16    4188.703000
7435.80    4218.803000
7437.43    4213.318000
7439.07    4181.664000
7440.70    4190.047000
7442.34    4274.149000
7443.98    4326.089000
7445.61    4349.391000
7447.25    4337.014000
7448.89    4278.053000
7450.52    4285.603000
7452.16    4360.692000
7453.79    4215.368000
7455.43    4157.846000
7457.07    4139.788000
7458.70    4194.003000
7460.34    4117.420000
7461.98    4007.743000
7463.61    3972.846000
7465.25    4103.472000
7466.88    4193.668000
7468.52    4163.291000
7470.16    4112.835000
7471.79    4064.292000
7473.43    4085.822000
7475.06    4228.519000
7476.70    4312.212000
7478.34    4047.733000
7479.97    4025.196000
7481.61    4009.781000
7483.24    4021.293000
7484.88    4229.939000
7486.52    4204.770000
7488.15    4291.345000
7489.79    4397.922000
7491.43    4233.175000
7493.06    4142.742000
7494.70    4169.942000
7496.34    4263.962000
7497.97    4316.690000
7499.61    4238.098000
7501.24    4197.166000
7502.88    4188.521000
7504.52    4142.234000
7506.15    4016.326000
7507.79    4029.653000
7509.43    4246.320000
7511.06    4036.102000
7512.70    4072.154000
7514.33    4072.210000
7515.97    3989.725000
7517.60    3915.275000
7519.24    4009.649000
7520.88    4048.399000
7522.52    3909.464000
7524.15    3755.694000
7525.79    3906.811000
7527.42    4032.496000
7529.06    3863.647000
7530.69    3949.776000
7532.33    3948.641000
7533.97    3936.667000
7535.60    4026.068000
7537.24    4063.927000
7538.88    4154.203000
7540.51    4240.954000
7542.15    4148.576000
7543.78    4094.712000
7545.42    4117.717000
7547.06    4171.872000
7548.69    4071.871000
7550.33    4151.926000
7551.97    4078.846000
7553.60    3867.068000
7555.24    4037.253000
7556.88    3995.956000
7558.51    4007.210000
7560.15    4083.387000
7561.78    3922.301000
7563.42    3979.593000
7565.06    3980.437000
7566.69    3880.629000
7568.33    3977.539000
7569.96    3997.469000
7571.60    4019.588000
7573.24    4082.934000
7574.87    4051.167000
7576.51    3953.801000
7578.15    3876.051000
