#Wavelength     Flux
#[Angstrom]   [Counts]
3913.05     0.000000
3914.68     0.000000
3916.32     0.000000
3917.95     0.000000
3919.59     0.000000
3921.23     0.000000
3922.86     0.000000
3924.50     0.000000
3926.14     0.000000
3927.77     0.000000
3929.41     0.000000
3931.04     0.000000
3932.68     0.000000
3934.32     0.000000
3935.95    5468.656000
3937.59    2302.311000
3939.22    2316.343000
3940.86    2268.081000
3942.50    1889.060000
3944.13    1958.807000
3945.77    1830.422000
3947.41    2111.775000
3949.04    2204.409000
3950.68    1711.797000
3952.31    2341.759000
3953.95    1775.836000
3955.59    1953.212000
3957.22    1729.786000
3958.86    2208.011000
3960.49    2086.065000
3962.13    2001.699000
3963.77    2014.871000
3965.40    2119.622000
3967.04    2448.320000
3968.68    2278.878000
3970.31    2407.615000
3971.95    2533.066000
3973.59    2183.948000
3975.22    2336.434000
3976.86    2052.666000
3978.49    2225.780000
3980.13    2273.359000
3981.77    2183.918000
3983.40    2608.532000
3985.04    2523.642000
3986.67    2691.794000
3988.31    3041.429000
3989.95    2622.250000
3991.58    2503.458000
3993.22    2535.705000
3994.86    2034.824000
3996.49    1941.633000
3998.13    2182.893000
3999.76    2076.264000
4001.40    2132.315000
4003.04    1724.892000
4004.67    1559.123000
4006.31    1242.975000
4007.95    1175.103000
4009.58    1250.153000
4011.22    1624.578000
4012.85    1574.644000
4014.49    2047.628000
4016.13    1828.232000
4017.76    2009.834000
4019.40    2323.593000
4021.03    2242.552000
4022.67    2445.829000
4024.31    2453.249000
4025.94    2252.628000
4027.58    2615.882000
4029.22    2737.303000
4030.85    2406.059000
4032.49    2124.599000
4034.12    2347.542000
4035.76    1938.282000
4037.40    2144.451000
4039.03    1977.652000
4040.67    1635.319000
4042.30    1169.388000
4043.94    1159.417000
4045.58    1265.046000
4047.21    1535.713000
4048.85    1749.638000
4050.49    2079.312000
4052.12    2082.807000
4053.76    2151.697000
4055.39    2438.110000
4057.03    2578.127000
4058.67    2391.896000
4060.30    2469.155000
4061.94    2931.512000
4063.58    2916.582000
4065.21    2966.523000
4066.85    3041.237000
4068.49    3174.646000
4070.12    2866.921000
4071.76    3116.009000
4073.39    2860.976000
4075.03    3117.087000
4076.67    2934.280000
4078.30    2851.113000
4079.94    3213.311000
4081.57    3094.989000
4083.21    3064.253000
4084.85    3297.162000
4086.48    3187.567000
4088.12    3300.956000
4089.76    3746.974000
4091.39    3508.631000
4093.03    3408.831000
4094.66    3141.587000
4096.30    3097.691000
4097.94    3038.169000
4099.57    3154.832000
4101.21    3179.838000
4102.85    3181.105000
4104.48    3137.264000
4106.12    2889.590000
4107.75    2933.836000
4109.39    2853.465000
4111.03    2796.456000
4112.66    2810.813000
4114.30    2805.431000
4115.94    3165.979000
4117.57    3210.746000
4119.21    3009.252000
4120.84    2872.458000
4122.48    3125.172000
4124.12    2912.555000
4125.75    3048.594000
4127.39    3154.953000
4129.02    3193.579000
4130.66    3263.587000
4132.30    3067.387000
4133.93    3027.699000
4135.57    2867.222000
4137.20    2713.656000
4138.84    2815.028000
4140.48    2780.268000
4142.11    2605.330000
4143.75    2764.373000
4145.39    2813.017000
4147.02    3064.078000
4148.66    3185.037000
4150.30    2869.077000
4151.93    2918.985000
4153.57    3132.685000
4155.20    2948.105000
4156.84    2971.125000
4158.48    2941.636000
4160.11    3056.755000
4161.75    3238.458000
4163.39    3544.855000
4165.02    3473.484000
4166.66    3307.341000
4168.29    3129.416000
4169.93    3026.711000
4171.56    2745.035000
4173.20    2893.245000
4174.84    2901.818000
4176.47    2693.901000
4178.11    2539.574000
4179.75    2716.515000
4181.38    2670.695000
4183.02    2590.597000
4184.65    2892.727000
4186.29    2788.775000
4187.93    2824.351000
4189.56    2987.296000
4191.20    2880.013000
4192.84    2945.445000
4194.47    3116.336000
4196.11    2943.197000
4197.74    2974.560000
4199.38    3106.811000
4201.02    3003.119000
4202.65    3137.519000
4204.29    3019.041000
4205.93    3038.168000
4207.56    2832.197000
4209.20    2883.636000
4210.83    2755.106000
4212.47    3003.998000
4214.11    3125.822000
4215.74    3152.757000
4217.38    3349.900000
4219.02    3158.260000
4220.65    2946.231000
4222.29    2859.298000
4223.92    2894.857000
4225.56    3090.977000
4227.20    2957.115000
4228.83    2708.650000
4230.47    2856.055000
4232.10    2822.457000
4233.74    2959.802000
4235.38    3084.465000
4237.01    3014.677000
4238.65    2916.161000
4240.29    3116.538000
4241.92    3007.131000
4243.56    2827.023000
4245.19    2864.340000
4246.83    3085.878000
4248.47    2963.979000
4250.10    3063.251000
4251.74    2603.744000
4253.38    2988.605000
4255.01    3077.628000
4256.65    2886.912000
4258.28    2896.151000
4259.92    2915.953000
4261.56    2833.333000
4263.19    2493.291000
4264.83    2940.993000
4266.47    2951.369000
4268.10    2946.087000
4269.74    2933.531000
4271.37    2873.734000
4273.01    3029.068000
4274.65    3033.335000
4276.28    3200.999000
4277.92    2847.233000
4279.56    2862.381000
4281.19    2918.082000
4282.83    2784.811000
4284.46    3159.257000
4286.10    3004.638000
4287.74    3157.762000
4289.37    3182.966000
4291.01    3049.490000
4292.65    3198.610000
4294.28    3064.990000
4295.92    3219.606000
4297.55    3037.937000
4299.19    3183.477000
4300.83    3416.998000
4302.46    3240.399000
4304.10    3039.947000
4305.73    2687.013000
4307.37    2736.853000
4309.01    2941.002000
4310.64    2818.843000
4312.28    2870.678000
4313.92    3078.430000
4315.55    3048.033000
4317.19    3107.812000
4318.82    3047.801000
4320.46    3098.936000
4322.10    3125.818000
4323.73    3068.548000
4325.37    3195.091000
4327.01    3511.716000
4328.64    3269.030000
4330.28    3224.618000
4331.91    3065.328000
4333.55    2933.577000
4335.19    3150.382000
4336.82    2977.211000
4338.46    2989.240000
4340.10    3239.285000
4341.73    3128.602000
4343.37    3194.618000
4345.00    3152.541000
4346.64    3112.839000
4348.28    3379.836000
4349.91    3179.993000
4351.55    3045.893000
4353.19    2947.538000
4354.82    3236.890000
4356.46    3096.224000
4358.09    3111.885000
4359.73    3233.391000
4361.36    3315.676000
4363.00    3077.658000
4364.64    3282.760000
4366.27    3263.618000
4367.91    2818.015000
4369.55    3030.576000
4371.18    2815.421000
4372.82    3020.197000
4374.45    2902.735000
4376.09    2653.034000
4377.73    3057.198000
4379.36    2800.361000
4381.00    2486.348000
4382.64    2497.132000
4384.27    2411.750000
4385.91    2419.843000
4387.55    2480.374000
4389.18    2409.175000
4390.82    2474.982000
4392.45    2514.691000
4394.09    2738.001000
4395.73    2927.412000
4397.36    3212.314000
4399.00    3631.615000
4400.63    3458.215000
4402.27    3745.933000
4403.91    3229.192000
4405.54    3398.546000
4407.18    3066.407000
4408.81    3228.563000
4410.45    3403.922000
4412.09    3449.470000
4413.72    3646.162000
4415.36    3626.829000
4417.00    3476.480000
4418.63    3178.462000
4420.27    3280.155000
4421.90    3094.634000
4423.54    3184.963000
4425.18    3143.744000
4426.81    3140.378000
4428.45    3390.394000
4430.09    3313.616000
4431.72    3592.820000
4433.36    3435.507000
4434.99    3525.216000
4436.63    3608.418000
4438.27    3708.452000
4439.90    3404.372000
4441.54    3755.489000
4443.18    3470.146000
4444.81    3714.223000
4446.45    3793.610000
4448.08    3998.591000
4449.72    4196.392000
4451.36    3552.875000
4452.99    3883.179000
4454.63    3674.624000
4456.27    3551.731000
4457.90    3298.380000
4459.54    3221.953000
4461.17    3469.215000
4462.81    3514.916000
4464.45    3468.339000
4466.08    3113.164000
4467.72    3220.558000
4469.35    3240.904000
4470.99    3471.799000
4472.63    3354.834000
4474.26    3314.017000
4475.90    3240.850000
4477.54    3384.524000
4479.17    3667.432000
4480.81    3788.108000
4482.44    3557.938000
4484.08    3585.811000
4485.72    3538.749000
4487.35    3609.510000
4488.99    3564.905000
4490.62    3508.161000
4492.26    3400.994000
4493.90    3527.166000
4495.53    3792.517000
4497.17    3619.408000
4498.81    3651.835000
4500.44    4000.187000
4502.08    3751.068000
4503.72    3552.769000
4505.35    3995.418000
4506.99    3803.555000
4508.62    3653.053000
4510.26    3674.534000
4511.90    3957.176000
4513.53    3969.152000
4515.17    3786.394000
4516.81    3878.720000
4518.44    4041.136000
4520.08    4002.506000
4521.71    4062.343000
4523.35    3896.234000
4524.99    3901.989000
4526.62    3804.803000
4528.26    3854.071000
4529.90    3827.204000
4531.53    4155.760000
4533.17    4258.333000
4534.80    3903.242000
4536.44    4323.031000
4538.08    4061.037000
4539.71    3794.094000
4541.35    3861.340000
4542.98    3789.492000
4544.62    3595.021000
4546.26    3614.411000
4547.89    3887.171000
4549.53    3915.678000
4551.17    3943.510000
4552.80    4032.472000
4554.44    4059.432000
4556.07    4211.911000
4557.71    4297.624000
4559.35    4330.423000
4560.98    4486.773000
4562.62    4562.092000
4564.26    4480.013000
4565.89    4282.181000
4567.53    4311.029000
4569.16    4265.474000
4570.80    4267.414000
4572.44    4398.006000
4574.07    4350.413000
4575.71    4360.614000
4577.35    4342.097000
4578.98    4572.969000
4580.62    4334.331000
4582.25    4221.605000
4583.89    4451.083000
4585.53    4508.986000
4587.16    4511.225000
4588.80    4645.853000
4590.43    4691.773000
4592.07    4939.727000
4593.71    4804.327000
4595.34    4710.585000
4596.98    4605.641000
4598.61    4533.745000
4600.25    4659.542000
4601.89    4768.242000
4603.52    4522.834000
4605.16    4460.615000
4606.80    4604.732000
4608.43    4535.601000
4610.07    4426.604000
4611.70    4306.821000
4613.34    4068.405000
4614.98    3846.283000
4616.61    3932.911000
4618.25    4180.706000
4619.89    4151.652000
4621.52    4290.799000
4623.16    4396.692000
4624.79    4390.185000
4626.43    4476.586000
4628.07    4503.442000
4629.70    4596.314000
4631.34    4503.792000
4632.98    4198.037000
4634.61    4253.042000
4636.25    4292.842000
4637.88    4263.298000
4639.52    4487.506000
4641.16    4636.921000
4642.79    4270.844000
4644.43    4474.009000
4646.06    4761.600000
4647.70    4890.956000
4649.34    5055.271000
4650.97    4946.981000
4652.61    4710.181000
4654.25    4742.208000
4655.88    4806.516000
4657.52    4864.537000
4659.15    4812.913000
4660.79    4742.295000
4662.43    4672.556000
4664.06    4768.231000
4665.70    4735.428000
4667.34    4699.794000
4668.97    4762.026000
4670.61    4422.752000
4672.24    4373.044000
4673.88    4551.994000
4675.52    4686.421000
4677.15    4612.293000
4678.79    4716.951000
4680.43    4727.871000
4682.06    4569.332000
4683.70    4514.558000
4685.33    4667.562000
4686.97    4680.229000
4688.61    4614.361000
4690.24    4699.902000
4691.88    4656.347000
4693.52    4984.317000
4695.15    4934.540000
4696.79    4976.146000
4698.42    5030.802000
4700.06    5171.456000
4701.70    5057.191000
4703.33    4938.452000
4704.97    4891.395000
4706.60    4867.187000
4708.24    4894.821000
4709.88    5028.577000
4711.51    4995.591000
4713.15    5071.003000
4714.79    5014.748000
4716.42    4824.070000
4718.06    4838.087000
4719.69    5042.936000
4721.33    4968.749000
4722.97    4718.234000
4724.60    4700.103000
4726.24    4883.772000
4727.88    4659.096000
4729.51    4753.979000
4731.15    4814.397000
4732.78    4703.938000
4734.42    4380.629000
4736.06    4516.939000
4737.69    4630.542000
4739.33    4507.339000
4740.97    4609.335000
4742.60    4873.231000
4744.24    4741.430000
4745.87    4699.750000
4747.51    4881.213000
4749.15    4951.830000
4750.78    4803.402000
4752.42    4669.389000
4754.06    4861.915000
4755.69    4577.593000
4757.33    4324.968000
4758.96    4507.737000
4760.60    4565.153000
4762.24    4716.051000
4763.87    4753.445000
4765.51    4637.554000
4767.15    4962.911000
4768.78    4682.834000
4770.42    4644.763000
4772.05    4602.871000
4773.69    4653.803000
4775.33    4926.477000
4776.96    5187.032000
4778.60    4778.981000
4780.23    4610.977000
4781.87    4911.452000
4783.51    4833.104000
4785.14    4607.505000
4786.78    4555.825000
4788.41    4740.439000
4790.05    4629.993000
4791.69    4406.946000
4793.32    4496.070000
4794.96    4496.146000
4796.60    4538.903000
4798.23    4504.632000
4799.87    4555.316000
4801.51    4709.342000
4803.14    4719.399000
4804.78    4825.369000
4806.41    5044.117000
4808.05    5071.413000
4809.69    4979.528000
4811.32    5089.803000
4812.96    5170.271000
4814.59    5118.124000
4816.23    4714.438000
4817.87    4884.386000
4819.50    4827.715000
4821.14    4717.215000
4822.77    4496.468000
4824.41    5067.598000
4826.05    4970.328000
4827.68    4958.624000
4829.32    5098.571000
4830.96    5304.377000
4832.59    4930.698000
4834.23    5424.152000
4835.86    5148.908000
4837.50    5072.491000
4839.14    5181.576000
4840.77    5256.256000
4842.41    5199.774000
4844.05    5149.840000
4845.68    5166.692000
4847.32    4950.294000
4848.95    4972.042000
4850.59    4905.390000
4852.23    4964.107000
4853.86    4924.975000
4855.50    5071.284000
4857.14    4924.873000
4858.77    4940.046000
4860.41    5068.944000
4862.04    5212.769000
4863.68    4940.916000
4865.32    5283.672000
4866.95    5359.661000
4868.59    5243.862000
4870.23    5235.415000
4871.86    5053.469000
4873.50    4973.924000
4875.13    4985.144000
4876.77    5087.930000
4878.41    4950.262000
4880.04    5205.742000
4881.68    4972.849000
4883.31    4994.910000
4884.95    5074.557000
4886.59    5188.153000
4888.22    5260.068000
4889.86    5142.145000
4891.50    5130.941000
4893.13    5209.059000
4894.77    5204.973000
4896.40    5242.560000
4898.04    5101.444000
4899.68    5099.459000
4901.31    5082.459000
4902.95    5107.401000
4904.59    5167.224000
4906.22    5376.144000
4907.86    5467.737000
4909.49    5363.053000
4911.13    5388.484000
4912.77    5359.874000
4914.40    5256.726000
4916.04    5138.661000
4917.68    5111.975000
4919.31    5046.252000
4920.95    5166.929000
4922.58    5131.865000
4924.22    5130.146000
4925.86    5221.192000
4927.49    4998.437000
4929.13    4917.059000
4930.77    4947.704000
4932.40    5112.978000
4934.04    5062.629000
4935.67    5050.741000
4937.31    5170.976000
4938.95    5100.698000
4940.58    5056.918000
4942.22    5166.036000
4943.85    5063.844000
4945.49    4723.228000
4947.13    4750.366000
4948.76    4711.693000
4950.40    4748.003000
4952.04    4993.351000
4953.67    5147.716000
4955.31    5049.321000
4956.94    4830.003000
4958.58    4792.056000
4960.22    4857.466000
4961.85    4717.425000
4963.49    4636.222000
4965.12    4570.750000
4966.76    4451.991000
4968.40    4789.159000
4970.03    5200.899000
4971.67    5005.837000
4973.31    4979.598000
4974.94    5238.380000
4976.58    4934.139000
4978.22    4847.333000
4979.85    5113.207000
4981.49    4873.519000
4983.12    4896.519000
4984.76    4973.514000
4986.40    5011.017000
4988.03    5041.035000
4989.67    5160.791000
4991.31    5194.936000
4992.94    5340.088000
4994.58    5301.891000
4996.21    5131.361000
4997.85    5357.673000
4999.49    5318.828000
5001.12    5220.336000
5002.76    5248.163000
5004.39    5119.494000
5006.03    5283.899000
5007.67    5243.327000
5009.30    5036.365000
5010.94    4948.588000
5012.57    4805.201000
5014.21    4671.365000
5015.85    4804.062000
5017.48    4804.916000
5019.12    4967.467000
5020.76    5141.920000
5022.39    5275.708000
5024.03    5163.610000
5025.66    5109.726000
5027.30    5232.766000
5028.94    5293.258000
5030.57    5327.591000
5032.21    4988.303000
5033.85    5120.110000
5035.48    5105.024000
5037.12    5270.228000
5038.75    5310.034000
5040.39    5496.987000
5042.03    5369.156000
5043.66    5244.021000
5045.30    5331.516000
5046.94    5286.275000
5048.57    5299.366000
5050.21    5439.480000
5051.84    5069.584000
5053.48    5402.071000
5055.12    5301.531000
5056.75    5093.146000
5058.39    5284.599000
5060.02    5178.378000
5061.66    5276.715000
5063.30    5096.735000
5064.93    5331.096000
5066.57    5139.493000
5068.21    5150.057000
5069.84    4980.175000
5071.48    5120.000000
5073.11    5123.948000
5074.75    4978.010000
5076.39    4957.179000
5078.02    4778.363000
5079.66    4565.754000
5081.30    4812.171000
5082.93    4908.890000
5084.57    5009.647000
5086.20    5437.113000
5087.84    5092.756000
5089.48    4938.532000
5091.11    4982.373000
5092.75    5119.994000
5094.39    4859.659000
5096.02    5137.460000
5097.66    4980.071000
5099.29    5009.297000
5100.93    5099.798000
5102.57    5161.182000
5104.20    5331.056000
5105.84    4969.067000
5107.48    4916.047000
5109.11    4785.633000
5110.75    4640.337000
5112.38    4693.924000
5114.02    4587.748000
5115.66    4590.923000
5117.29    4705.419000
5118.93    4941.954000
5120.56    4773.522000
5122.20    4687.315000
5123.84    4845.719000
5125.47    4777.854000
5127.11    5086.042000
5128.75    5185.093000
5130.38    5003.857000
5132.02    5185.610000
5133.65    5024.433000
5135.29    4787.344000
5136.93    4642.938000
5138.56    4629.590000
5140.20    4904.145000
5141.84    4994.414000
5143.47    4908.290000
5145.11    4920.741000
5146.74    4947.250000
5148.38    4961.619000
5150.02    5064.727000
5151.65    5042.031000
5153.29    5243.846000
5154.93    5386.433000
5156.56    5444.234000
5158.20    5440.742000
5159.83    5233.661000
5161.47    4996.326000
5163.11    4906.539000
5164.74    4906.322000
5166.38    4853.003000
5168.02    4935.960000
5169.65    5010.831000
5171.29    4825.320000
5172.92    4747.034000
5174.56    4848.513000
5176.20    4750.484000
5177.83    4613.453000
5179.47    4835.810000
5181.10    4801.061000
5182.74    4745.501000
5184.38    4785.759000
5186.01    5074.805000
5187.65    5058.064000
5189.29    4982.532000
5190.92    5028.397000
5192.56    5045.989000
5194.19    4880.835000
5195.83    4911.239000
5197.47    4761.460000
5199.10    4780.608000
5200.74    4675.514000
5202.38    4877.837000
5204.01    4864.903000
5205.65    4950.561000
5207.28    4801.062000
5208.92    4674.180000
5210.56    4911.256000
5212.19    4991.025000
5213.83    5187.740000
5215.47    4977.298000
5217.10    5043.934000
5218.74    4927.295000
5220.37    4850.944000
5222.01    4820.531000
5223.65    4613.310000
5225.28    4594.347000
5226.92    4634.280000
5228.56    4755.116000
5230.19    4569.679000
5231.83    4721.378000
5233.46    4875.736000
5235.10    4838.247000
5236.73    4835.132000
5238.37    4616.123000
5240.01    4712.455000
5241.64    4861.502000
5243.28    4406.859000
5244.92    4593.062000
5246.55    4655.469000
5248.19    4451.998000
5249.82    4624.395000
5251.46    4493.876000
5253.10    4853.167000
5254.73    4568.592000
5256.37    4850.232000
5258.01    4732.051000
5259.64    4610.592000
5261.28    4563.774000
5262.91    4233.935000
5264.55    4129.615000
5266.19    3947.627000
5267.82    3592.870000
5269.46    3694.664000
5271.10    3890.772000
5272.73    3776.726000
5274.37    3901.058000
5276.00    4222.855000
5277.64    4249.991000
5279.28    4039.937000
5280.91    4126.414000
5282.55    4155.510000
5284.19    4157.965000
5285.82    4190.944000
5287.46    4212.790000
5289.09    4303.423000
5290.73    4588.210000
5292.37    4557.610000
5294.00    4548.535000
5295.64    4767.556000
5297.27    4813.130000
5298.91    4908.432000
5300.55    4745.257000
5302.18    4615.054000
5303.82    4797.920000
5305.46    4603.415000
5307.09    4471.379000
5308.73    4553.925000
5310.36    4690.010000
5312.00    4809.152000
5313.64    4707.809000
5315.27    4811.912000
5316.91    4798.880000
5318.55    4886.807000
5320.18    5051.282000
5321.82    4913.236000
5323.45    4625.504000
5325.09    4710.311000
5326.73    4440.614000
5328.36    4648.936000
5330.00    4799.447000
5331.64    4998.311000
5333.27    4869.875000
5334.91    4973.399000
5336.54    5072.378000
5338.18    5297.340000
5339.82    5109.121000
5341.45    4984.156000
5343.09    4958.772000
5344.73    5186.126000
5346.36    5113.705000
5348.00    5089.598000
5349.63    5063.317000
5351.27    4864.605000
5352.91    4899.657000
5354.54    5074.015000
5356.18    5126.691000
5357.81    5162.876000
5359.45    4870.735000
5361.09    4835.688000
5362.72    4821.275000
5364.36    4608.330000
5366.00    4570.358000
5367.63    4459.001000
5369.27    4472.453000
5370.90    4406.788000
5372.54    4536.413000
5374.18    4483.178000
5375.81    4783.248000
5377.45    4795.525000
5379.09    4914.080000
5380.72    5128.299000
5382.36    5050.618000
5383.99    4933.294000
5385.63    5062.881000
5387.27    5362.941000
5388.90    5383.405000
5390.54    5343.811000
5392.18    5534.506000
5393.81    5331.077000
5395.45    5179.116000
5397.08    5307.581000
5398.72    4902.226000
5400.36    5020.612000
5401.99    5168.543000
5403.63    5370.580000
5405.27    5276.462000
5406.90    5421.219000
5408.54    5258.647000
5410.17    5385.400000
5411.81    5393.221000
5413.45    5370.678000
5415.08    5577.901000
5416.72    5279.996000
5418.35    5333.267000
5419.99    5381.126000
5421.63    5457.008000
5423.26    5338.000000
5424.90    5115.957000
5426.53    4903.136000
5428.17    4893.108000
5429.81    5087.717000
5431.44    5073.234000
5433.08    4844.320000
5434.72    4796.735000
5436.35    4831.499000
5437.99    5153.329000
5439.62    5151.549000
5441.26    5122.356000
5442.90    5211.575000
5444.53    5209.965000
5446.17    5254.247000
5447.81    5316.376000
5449.44    5249.746000
5451.08    5213.169000
5452.72    5195.769000
5454.35    5480.063000
5455.99    5510.967000
5457.62    5517.072000
5459.26    5486.964000
5460.90    5469.631000
5462.53    5709.378000
5464.17    5476.333000
5465.80    5356.391000
5467.44    5542.959000
5469.08    5371.983000
5470.71    5295.577000
5472.35    5382.573000
5473.98    5076.792000
5475.62    4941.560000
5477.26    5167.573000
5478.89    5169.430000
5480.53    5236.815000
5482.17    5281.664000
5483.80    5471.220000
5485.44    5403.829000
5487.07    5626.877000
5488.71    5101.315000
5490.35    5230.180000
5491.98    5268.706000
5493.62    5206.484000
5495.26    4928.124000
5496.89    5082.353000
5498.53    4881.747000
5500.16    5205.651000
5501.80    5000.976000
5503.44    4766.567000
5505.07    5164.592000
5506.71    5262.801000
5508.35    5034.095000
5509.98    4955.067000
5511.62    4855.396000
5513.25    5136.545000
5514.89    5037.356000
5516.53    5108.668000
5518.16    5211.271000
5519.80    5201.992000
5521.44    5442.455000
5523.07    5356.251000
5524.71    5361.867000
5526.34    5246.488000
5527.98    5290.541000
5529.62    5224.983000
5531.25    5005.783000
5532.89    5089.053000
5534.52    5197.344000
5536.16    5121.174000
5537.80    5134.870000
5539.43    5216.408000
5541.07    5120.689000
5542.71    5360.294000
5544.34    5550.709000
5545.98    5238.437000
5547.61    5099.893000
5549.25    5134.482000
5550.89    5121.566000
5552.52    5080.211000
5554.16    5146.891000
5555.80    5185.721000
5557.43    5205.410000
5559.07    5126.053000
5560.70    5053.189000
5562.34    5066.607000
5563.98    5063.384000
5565.61    5245.068000
5567.25    5206.792000
5568.89    5211.694000
5570.52    5283.004000
5572.16    3951.901000
5573.79    2084.550000
5575.43    2330.804000
5577.07    5455.153000
5578.70    8321.823000
5580.34    7440.945000
5581.98    6904.935000
5583.61    6628.592000
5585.25    6048.634000
5586.88    5659.276000
5588.52    5321.810000
5590.16    2475.557000
5591.79    5483.491000
5593.43    5121.399000
5595.06    5299.463000
5596.70    5355.526000
5598.34    5312.876000
5599.97    4871.430000
5601.61    5125.641000
5603.24    5247.815000
5604.88    5269.430000
5606.52    5097.373000
5608.15    5320.642000
5609.79    5271.874000
5611.43    4936.563000
5613.06    5072.269000
5614.70    5204.700000
5616.34    5211.839000
5617.97    5048.250000
5619.61    4827.566000
5621.24    4949.570000
5622.88    5168.130000
5624.52    5586.854000
5626.15    5374.916000
5627.79    5345.215000
5629.43    5265.982000
5631.06    4971.042000
5632.70    5039.007000
5634.33    5055.878000
5635.97    5091.894000
5637.60    5296.237000
5639.24    5359.798000
5640.88    5334.505000
5642.51    5287.146000
5644.15    5324.420000
5645.79    5414.441000
5647.42    5393.119000
5649.06    5321.430000
5650.69    5439.688000
5652.33    5690.314000
5653.97    5453.927000
5655.60    4907.625000
5657.24    5429.761000
5658.88    5576.578000
5660.51    5450.652000
5662.15    5063.356000
5663.78    5274.655000
5665.42    5628.945000
5667.06    5641.021000
5668.69    5206.154000
5670.33    5009.189000
5671.97    5300.710000
5673.60    5287.917000
5675.24    4664.341000
5676.88    5148.812000
5678.51    5239.241000
5680.15    5252.128000
5681.78    5195.677000
5683.42    5258.718000
5685.06    5001.543000
5686.69    4842.472000
5688.33    5343.173000
5689.96    4980.390000
5691.60    4950.593000
5693.24    4930.759000
5694.87    4429.049000
5696.51    4828.170000
5698.15    4895.506000
5699.78    4839.714000
5701.42    5018.777000
5703.05    5108.156000
5704.69    5106.568000
5706.33    5063.111000
5707.96    5500.782000
5709.60    5085.543000
5711.23    5110.949000
5712.87    5504.119000
5714.51    5272.700000
5716.14    4871.195000
5717.78    4889.758000
5719.42    5431.801000
5721.05    5345.552000
5722.69    5190.905000
5724.32    5089.920000
5725.96    5102.072000
5727.60    5324.974000
5729.23    5064.363000
5730.87    4864.986000
5732.51    4927.592000
5734.14    5039.045000
5735.78    5208.724000
5737.41    5226.258000
5739.05    4692.301000
5740.69    5094.313000
5742.32    5232.146000
5743.96    5257.500000
5745.60    5057.330000
5747.23    5036.284000
5748.87    5024.091000
5750.50    5004.223000
5752.14    4995.793000
5753.78    5248.804000
5755.41    5328.412000
5757.05    5293.686000
5758.69    4940.211000
5760.32    4792.471000
5761.96    4979.758000
5763.59    5408.298000
5765.23    4722.358000
5766.87    4808.266000
5768.50    5033.726000
5770.14    5428.987000
5771.77    4843.934000
5773.41    5032.500000
5775.05    5221.073000
5776.68    5414.563000
5778.32    4998.288000
5779.96    4906.405000
5781.59    5014.699000
5783.23    5531.804000
5784.86    5315.364000
5786.50    5218.841000
5788.14    5183.412000
5789.77    5310.365000
5791.41    5263.645000
5793.05    5369.837000
5794.68    5504.136000
5796.32    5632.952000
5797.95    5618.745000
5799.59    5604.954000
5801.23    5538.814000
5802.86    5178.486000
5804.50    5230.338000
5806.14    5320.847000
5807.77    5397.539000
5809.41    5072.812000
5811.04    5061.516000
5812.68    5049.056000
5814.32    5022.486000
5815.95    4889.112000
5817.59    5027.159000
5819.23    5122.998000
5820.86    5185.595000
5822.50    5186.274000
5824.13    5298.813000
5825.77    5325.056000
5827.40    5252.742000
5829.04    5016.243000
5830.68    5164.239000
5832.31    5253.066000
5833.95    5194.241000
5835.59    5351.163000
5837.22    5253.288000
5838.86    5180.308000
5840.49    5288.208000
5842.13    5281.589000
5843.77    5446.439000
5845.40    5580.356000
5847.04    5464.623000
5848.68    5552.078000
5850.31    5432.865000
5851.95    5312.444000
5853.59    5680.905000
5855.22    5773.904000
5856.86    5697.886000
5858.49    5576.894000
5860.13    5898.732000
5861.77    5501.391000
5863.40    5305.519000
5865.04    5220.354000
5866.67    5370.189000
5868.31    5455.197000
5869.95    5240.139000
5871.58    4748.760000
5873.22    5542.574000
5874.85    5205.767000
5876.49    5151.136000
5878.13    5484.145000
5879.76    5259.024000
5881.40    5368.704000
5883.04    5299.393000
5884.67    4880.752000
5886.31    5446.597000
5887.94    5278.101000
5889.58    5048.249000
5891.22    4862.193000
5892.85    4634.501000
5894.49    5015.612000
5896.13    5299.909000
5897.76    4847.498000
5899.40    4713.622000
5901.03    4818.629000
5902.67    4996.908000
5904.31    5281.361000
5905.94    5173.180000
5907.58    5185.579000
5909.22    5276.944000
5910.85    5725.452000
5912.49    5616.929000
5914.12    5421.738000
5915.76    5176.553000
5917.40    5302.159000
5919.03    5321.423000
5920.67    5312.008000
5922.31    5265.205000
5923.94    5095.153000
5925.58    5181.356000
5927.21    5205.420000
5928.85    5162.687000
5930.49    5343.949000
5932.12    5371.555000
5933.76    5389.985000
5935.40    5417.317000
5937.03    5688.332000
5938.67    5600.187000
5940.30    5518.182000
5941.94    5539.677000
5943.58    5330.100000
5945.21    5370.709000
5946.85    5335.852000
5948.48    4932.620000
5950.12    5596.787000
5951.76    5556.857000
5953.39    5315.177000
5955.03    4961.789000
5956.67    5190.743000
5958.30    5201.758000
5959.94    5176.049000
5961.57    5515.994000
5963.21    5152.159000
5964.85    5058.329000
5966.48    5107.204000
5968.12    5461.125000
5969.76    5405.912000
5971.39    5188.531000
5973.03    4839.385000
5974.66    5087.454000
5976.30    4905.701000
5977.94    5036.582000
5979.57    5504.133000
5981.21    5191.460000
5982.85    5247.304000
5984.48    5364.371000
5986.12    5582.341000
5987.75    5722.421000
5989.39    5702.611000
5991.03    5583.861000
5992.66    5290.984000
5994.30    5141.681000
5995.94    5006.663000
5997.57    4903.870000
5999.21    4901.273000
6000.84    3976.183000
6002.48    4085.123000
6004.12    4260.529000
6005.75    3794.871000
6007.39    3914.032000
6009.02    4022.888000
6010.66    4130.095000
6012.30    4260.138000
6013.93    4962.693000
6015.57    5200.242000
6017.20    5233.017000
6018.84    5296.859000
6020.48    5019.565000
6022.11    4960.212000
6023.75    5026.790000
6025.39    5104.223000
6027.02    4835.516000
6028.66    4707.677000
6030.30    4705.729000
6031.93    5147.419000
6033.57    5096.058000
6035.20    5040.139000
6036.84    4992.288000
6038.48    4937.784000
6040.11    5152.135000
6041.75    5297.491000
6043.39    5316.257000
6045.02    5057.012000
6046.66    5175.790000
6048.29    5251.154000
6049.93    5113.584000
6051.56    5329.855000
6053.20    5242.418000
6054.84    5117.194000
6056.48    5108.820000
6058.11    5390.676000
6059.75    5601.690000
6061.38    5680.713000
6063.02    5092.381000
6064.65    5126.039000
6066.29    5153.500000
6067.93    5176.064000
6069.56    5231.535000
6071.20    5317.380000
6072.84    5257.072000
6074.47    5106.895000
6076.11    5180.282000
6077.74    5003.907000
6079.38    5079.756000
6081.02    5368.258000
6082.65    5477.785000
6084.29    5245.540000
6085.93    5183.034000
6087.56    5324.374000
6089.20    5288.891000
6090.84    5354.510000
6092.47    5357.124000
6094.11    5263.063000
6095.74    5233.011000
6097.38    5198.308000
6099.02    5251.459000
6100.65    5542.944000
6102.29    5328.941000
6103.92    5140.333000
6105.56    4955.443000
6107.20    4797.836000
6108.83    4929.913000
6110.47    4987.324000
6112.10    5023.584000
6113.74    5071.016000
6115.38    5003.300000
6117.01    4936.440000
6118.65    4892.152000
6120.29    5113.213000
6121.92    5197.016000
6123.56    5137.210000
6125.19    4997.594000
6126.83    5015.354000
6128.47    4920.259000
6130.10    4896.988000
6131.74    4920.547000
6133.38    5252.884000
6135.01    5172.198000
6136.65    5169.832000
6138.28    5245.943000
6139.92    5225.514000
6141.56    4993.390000
6143.19    4969.423000
6144.83    5294.457000
6146.47    5325.640000
6148.10    5335.288000
6149.74    5317.508000
6151.37    5257.863000
6153.01    5212.769000
6154.65    5260.669000
6156.28    5243.807000
6157.92    5014.051000
6159.56    5068.351000
6161.19    5171.075000
6162.83    5257.459000
6164.46    5238.016000
6166.10    5287.681000
6167.74    5417.666000
6169.37    5526.397000
6171.01    5298.394000
6172.65    5391.668000
6174.28    5351.721000
6175.92    5248.236000
6177.55    5303.815000
6179.19    5368.901000
6180.83    5331.023000
6182.46    5213.882000
6184.10    5137.086000
6185.73    5202.221000
6187.37    5267.749000
6189.01    5334.437000
6190.64    5047.437000
6192.28    4955.298000
6193.92    4896.671000
6195.55    4892.181000
6197.19    4858.890000
6198.82    5049.057000
6200.46    5138.428000
6202.10    5022.857000
6203.73    4887.570000
6205.37    4959.239000
6207.01    5043.149000
6208.64    5128.639000
6210.28    5118.655000
6211.91    5241.807000
6213.55    5313.616000
6215.19    5080.662000
6216.82    5070.118000
6218.46    5022.829000
6220.10    4972.796000
6221.73    5017.446000
6223.37    5297.898000
6225.00    5165.375000
6226.64    4921.099000
6228.28    5575.865000
6229.91    5733.532000
6231.55    5671.617000
6233.19    5458.193000
6234.82    5098.893000
6236.46    5166.823000
6238.09    5187.135000
6239.73    5165.035000
6241.36    5176.769000
6243.00    5291.290000
6244.64    5285.853000
6246.27    5143.672000
6247.91    5330.758000
6249.55    5207.601000
6251.18    5066.335000
6252.82    4921.257000
6254.45    4905.328000
6256.09    4911.344000
6257.73    4924.030000
6259.36    4979.324000
6261.00    4990.127000
6262.64    5022.428000
6264.27    5099.757000
6265.91    5354.558000
6267.55    5456.480000
6269.18    5363.105000
6270.82    5219.316000
6272.45    5123.706000
6274.09    4736.438000
6275.73    4606.290000
6277.36    4539.066000
6279.00    4248.854000
6280.64    4372.102000
6282.27    4482.083000
6283.91    4572.125000
6285.54    4408.369000
6287.18    4394.747000
6288.81    4469.798000
6290.45    4602.156000
6292.09    4451.321000
6293.72    4584.069000
6295.36    4858.239000
6297.00    5314.783000
6298.63    4884.783000
6300.27    4855.004000
6301.90    4851.280000
6303.54    4880.250000
6305.18    5101.672000
6306.81    5059.471000
6308.45    4932.691000
6310.09    4680.662000
6311.72    4848.282000
6313.36    4709.850000
6314.99    4557.777000
6316.63    4523.822000
6318.27    4605.948000
6319.90    4808.033000
6321.54    4984.609000
6323.18    4908.585000
6324.81    5081.884000
6326.45    5065.182000
6328.08    4978.414000
6329.72    4928.006000
6331.36    4908.138000
6332.99    4763.706000
6334.63    4559.902000
6336.27    4603.977000
6337.90    4719.617000
6339.54    4777.666000
6341.17    4785.021000
6342.81    4901.933000
6344.45    5073.038000
6346.08    5074.599000
6347.72    4902.115000
6349.35    4640.433000
6350.99    4657.417000
6352.63    4772.701000
6354.26    5048.264000
6355.90    4863.595000
6357.54    5171.993000
6359.17    5324.396000
6360.81    5119.433000
6362.44    4602.082000
6364.08    4468.604000
6365.72    4456.351000
6367.35    4666.522000
6368.99    4735.997000
6370.63    4689.092000
6372.26    4586.923000
6373.90    4366.608000
6375.53    4676.010000
6377.17    4724.639000
6378.81    4708.646000
6380.44    4850.450000
6382.08    4833.393000
6383.72    4860.157000
6385.35    4893.214000
6386.99    4815.743000
6388.62    4820.164000
6390.26    4826.760000
6391.90    4820.877000
6393.53    4826.129000
6395.17    4735.903000
6396.81    4695.784000
6398.44    4699.864000
6400.08    5004.496000
6401.71    4804.436000
6403.35    4597.381000
6404.99    4383.860000
6406.62    4530.798000
6408.26    4706.752000
6409.90    4840.235000
6411.53    4928.957000
6413.17    4928.650000
6414.80    4968.390000
6416.44    5032.315000
6418.08    5169.540000
6419.71    5020.877000
6421.35    4823.787000
6422.98    4698.242000
6424.62    4906.689000
6426.26    4641.533000
6427.89    4661.679000
6429.53    4747.358000
6431.16    4785.868000
6432.80    4892.901000
6434.44    4808.121000
6436.07    4686.396000
6437.71    5070.876000
6439.35    4881.212000
6440.98    4658.841000
6442.62    4418.403000
6444.26    4803.534000
6445.89    4864.550000
6447.53    4991.126000
6449.16    5173.773000
6450.80    5042.495000
6452.44    4819.849000
6454.07    4856.751000
6455.71    5211.781000
6457.35    5344.875000
6458.98    5073.468000
6460.62    4894.116000
6462.25    4909.154000
6463.89    5078.224000
6465.52    5176.487000
6467.16    5206.799000
6468.80    5122.326000
6470.44    4856.270000
6472.07    4774.464000
6473.71    4693.682000
6475.34    4522.225000
6476.98    4776.942000
6478.61    4835.177000
6480.25    4864.676000
6481.89    5036.422000
6483.52    4947.296000
6485.16    5014.123000
6486.80    5082.752000
6488.43    4702.736000
6490.07    4709.736000
6491.70    4760.748000
6493.34    4830.590000
6494.98    4999.870000
6496.61    4805.937000
6498.25    4700.545000
6499.89    4647.970000
6501.52    4956.515000
6503.16    4963.316000
6504.80    5060.937000
6506.43    5263.196000
6508.07    4825.919000
6509.70    4820.718000
6511.34    4885.576000
6512.98    5068.243000
6514.61    5072.501000
6516.25    4911.205000
6517.88    4768.769000
6519.52    4709.271000
6521.16    4900.583000
6522.79    4911.445000
6524.43    4872.631000
6526.06    4770.973000
6527.70    4740.805000
6529.34    4779.418000
6530.97    4862.605000
6532.61    5117.076000
6534.25    4884.755000
6535.88    4838.148000
6537.52    4837.042000
6539.15    4765.782000
6540.79    4970.414000
6542.43    5097.478000
6544.06    5160.355000
6545.70    4946.027000
6547.34    5375.520000
6548.97    5507.243000
6550.61    5428.601000
6552.24    5028.886000
6553.88    4919.545000
6555.52    4946.756000
6557.15    5108.832000
6558.79    5015.612000
6560.43    5056.827000
6562.06    5132.693000
6563.70    5283.921000
6565.33    5057.214000
6566.97    4946.246000
6568.61    4895.110000
6570.24    4968.104000
6571.88    4579.878000
6573.52    4519.910000
6575.15    4593.351000
6576.79    4950.430000
6578.42    4982.333000
6580.06    4964.273000
6581.70    4986.575000
6583.33    5250.152000
6584.97    4863.189000
6586.60    4807.102000
6588.24    4854.740000
6589.88    4979.260000
6591.51    4983.995000
6593.15    4931.991000
6594.79    4857.473000
6596.42    4963.164000
6598.06    5229.779000
6599.69    5204.717000
6601.33    4998.422000
6602.97    4983.917000
6604.60    4941.538000
6606.24    4900.295000
6607.88    4859.238000
6609.51    4585.284000
6611.15    4504.028000
6612.78    4546.477000
6614.42    4768.392000
6616.06    4847.117000
6617.69    4738.093000
6619.33    4516.915000
6620.97    4112.378000
6622.60    4183.504000
6624.24    4423.593000
6625.87    4653.237000
6627.51    4844.817000
6629.15    4872.822000
6630.78    4916.410000
6632.42    4935.171000
6634.06    4878.661000
6635.69    4808.634000
6637.33    4799.827000
6638.96    4822.630000
6640.60    4960.229000
6642.24    4910.981000
6643.87    4858.601000
6645.51    4813.819000
6647.15    4976.178000
6648.78    4834.549000
6650.42    4827.615000
6652.05    4890.701000
6653.69    5036.303000
6655.32    4765.220000
6656.96    4785.177000
6658.60    5018.220000
6660.23    4855.181000
6661.87    4654.320000
6663.51    4675.382000
6665.14    4953.205000
6666.78    5061.033000
6668.41    5264.119000
6670.05    5439.760000
6671.69    5608.046000
6673.32    5930.476000
6674.96    5484.961000
6676.60    5088.087000
6678.23    4933.519000
6679.87    4809.815000
6681.51    5330.803000
6683.14    6334.805000
6684.78    8727.230000
6686.41    10629.230000
6688.05    10880.140000
6689.69    10464.240000
6691.32    8699.871000
6692.96    6551.117000
6694.60    5544.487000
6696.23    4954.222000
6697.87    4867.017000
6699.50    5065.237000
6701.14    5165.800000
6702.77    5216.389000
6704.41    5283.464000
6706.05    6608.277000
6707.68    7274.913000
6709.32    7489.113000
6710.96    6883.609000
6712.59    6495.722000
6714.23    5907.959000
6715.86    5073.938000
6717.50    4711.711000
6719.14    4785.885000
6720.77    4890.229000
6722.41    5056.468000
6724.05    4671.675000
6725.68    4839.237000
6727.32    4948.771000
6728.95    4878.428000
6730.59    4766.118000
6732.23    4770.187000
6733.86    4778.891000
6735.50    4777.839000
6737.14    4891.239000
6738.77    4759.786000
6740.41    4602.472000
6742.04    4575.852000
6743.68    4688.555000
6745.32    4769.559000
6746.95    4830.853000
6748.59    4884.728000
6750.23    4850.800000
6751.86    4858.217000
6753.50    4890.133000
6755.13    5070.572000
6756.77    4681.569000
6758.41    4644.692000
6760.04    4813.409000
6761.68    4781.620000
6763.31    4639.141000
6764.95    4549.081000
6766.59    4505.517000
6768.22    4810.414000
6769.86    4481.579000
6771.50    4395.086000
6773.13    4651.838000
6774.77    4706.998000
6776.40    4744.020000
6778.04    4729.805000
6779.68    4631.392000
6781.31    4712.730000
6782.95    4800.985000
6784.59    4891.763000
6786.22    5016.477000
6787.86    4819.575000
6789.49    4840.026000
6791.13    4845.848000
6792.77    4655.637000
6794.40    4619.270000
6796.04    4690.323000
6797.68    4722.141000
6799.31    4394.146000
6800.95    4545.231000
6802.58    4632.207000
6804.22    4696.455000
6805.86    4816.935000
6807.49    4445.159000
6809.13    4463.297000
6810.77    4692.852000
6812.40    4802.693000
6814.04    4571.651000
6815.67    4480.235000
6817.31    4492.754000
6818.95    4435.539000
6820.58    4436.687000
6822.22    4511.220000
6823.85    4682.931000
6825.49    4813.105000
6827.13    4475.760000
6828.76    4396.078000
6830.40    4791.478000
6832.04    4539.035000
6833.67    4304.361000
6835.31    4273.867000
6836.94    4748.205000
6838.58    4958.093000
6840.22    5301.996000
6841.85    5543.214000
6843.49    5382.393000
6845.12    5111.004000
6846.76    4972.069000
6848.40    4858.017000
6850.03    4764.497000
6851.67    4750.990000
6853.31    4733.334000
6854.94    4746.799000
6856.58    5092.046000
6858.22    5077.337000
6859.85    4967.021000
6861.49    4793.487000
6863.12    4660.003000
6864.76    4370.490000
6866.40    4013.425000
6868.03    3578.969000
6869.67    3275.519000
6871.31    2939.045000
6872.94    3015.007000
6874.58    3541.831000
6876.21    3781.195000
6877.85    3650.297000
6879.48    3640.907000
6881.12    3842.797000
6882.76    3952.476000
6884.40    3753.160000
6886.03    3611.034000
6887.67    3646.766000
6889.30    3897.168000
6890.94    3861.650000
6892.57    3826.972000
6894.21    3934.389000
6895.85    3818.063000
6897.48    3807.781000
6899.12    3845.715000
6900.76    4039.066000
6902.39    4087.770000
6904.03    4121.764000
6905.66    4165.271000
6907.30    4340.974000
6908.94    4346.612000
6910.57    4422.268000
6912.21    4500.154000
6913.85    4222.126000
6915.48    3924.956000
6917.12    3965.157000
6918.76    4221.545000
6920.39    4249.729000
6922.03    4397.890000
6923.66    4343.069000
6925.30    4093.191000
6926.94    4420.108000
6928.57    4206.133000
6930.21    4091.946000
6931.84    4128.465000
6933.48    4397.797000
6935.12    4332.981000
6936.75    4289.621000
6938.39    4342.197000
6940.02    4290.317000
6941.66    4368.981000
6943.30    4388.865000
6944.93    4213.776000
6946.57    4130.915000
6948.21    4055.150000
6949.84    4075.508000
6951.48    4527.896000
6953.11    4288.658000
6954.75    4256.537000
6956.39    4266.488000
6958.02    4190.455000
6959.66    4228.944000
6961.30    4223.736000
6962.93    4212.896000
6964.57    4425.099000
6966.20    4386.830000
6967.84    4340.820000
6969.48    4281.620000
6971.11    4234.736000
6972.75    4073.132000
6974.39    4102.888000
6976.02    4304.825000
6977.66    4347.275000
6979.29    4109.646000
6980.93    4014.582000
6982.57    4102.985000
6984.20    4161.164000
6985.84    4041.011000
6987.48    3979.118000
6989.11    4044.909000
6990.75    4191.302000
6992.38    4068.201000
6994.02    3971.641000
6995.66    4017.836000
6997.29    4091.783000
6998.93    4106.469000
7000.56    4120.940000
7002.20    4206.937000
7003.84    4076.080000
7005.47    4181.197000
7007.11    4301.520000
7008.75    4176.606000
7010.38    4251.034000
7012.02    4349.852000
7013.65    4449.770000
7015.29    4504.771000
7016.93    4250.707000
7018.56    4191.737000
7020.20    4235.803000
7021.84    4375.504000
7023.47    4357.556000
7025.11    4262.330000
7026.74    4094.411000
7028.38    4017.647000
7030.02    4302.640000
7031.65    4384.708000
7033.29    4237.883000
7034.93    4327.995000
7036.56    4428.654000
7038.20    4467.269000
7039.83    4424.363000
7041.47    4190.268000
7043.11    4184.906000
7044.74    4180.257000
7046.38    4143.728000
7048.02    4187.125000
7049.65    4160.974000
7051.29    4135.540000
7052.92    4176.678000
7054.56    4268.478000
7056.20    4331.564000
7057.83    4385.369000
7059.47    4446.333000
7061.10    4489.290000
7062.74    4403.362000
7064.38    4291.706000
7066.01    4401.817000
7067.65    4293.770000
7069.28    4184.407000
7070.92    4070.214000
7072.56    4057.003000
7074.19    4113.721000
7075.83    4095.119000
7077.47    4020.702000
7079.10    4203.775000
7080.74    4189.289000
7082.38    4163.758000
7084.01    4120.931000
7085.65    4028.753000
7087.28    4150.259000
7088.92    4233.794000
7090.56    4276.910000
7092.19    4195.388000
7093.83    4123.884000
7095.47    4064.295000
7097.10    4034.045000
7098.74    4046.685000
7100.37    4128.560000
7102.01    4173.372000
7103.65    4112.562000
7105.28    4234.443000
7106.92    4220.920000
7108.56    4169.040000
7110.19    4089.698000
7111.83    4047.582000
7113.46    4040.107000
7115.10    4053.092000
7116.73    4175.179000
7118.37    4265.829000
7120.01    4301.645000
7121.64    4301.549000
7123.28    4205.486000
7124.92    4196.077000
7126.55    4169.375000
7128.19    4127.343000
7129.82    4195.487000
7131.46    4191.331000
7133.10    4206.306000
7134.73    4237.265000
7136.37    4116.990000
7138.01    4075.953000
7139.64    4122.332000
7141.28    4301.094000
7142.91    4170.793000
7144.55    4037.305000
7146.19    3936.667000
7147.82    3899.282000
7149.46    4046.185000
7151.10    4057.397000
7152.73    4058.397000
7154.37    4099.010000
7156.00    3936.608000
7157.64    3943.620000
7159.28    3954.756000
7160.91    3875.764000
7162.55    3929.275000
7164.19    3864.863000
7165.82    3798.625000
7167.46    3956.219000
7169.09    3976.056000
7170.73    3934.748000
7172.37    3891.781000
7174.00    4137.580000
7175.64    4163.813000
7177.27    4145.004000
7178.91    4091.090000
7180.55    3984.490000
7182.18    3791.302000
7183.82    3659.781000
7185.46    3557.194000
7187.09    3658.347000
7188.73    3784.604000
7190.36    3742.479000
7192.00    3493.698000
7193.64    3404.652000
7195.27    3528.716000
7196.91    3557.667000
7198.55    3424.034000
7200.18    3622.949000
7201.82    3507.783000
7203.45    3473.109000
7205.09    3721.927000
7206.73    3598.617000
7208.36    3575.911000
7210.00    3632.532000
7211.64    3925.937000
7213.27    3757.830000
7214.91    3588.222000
7216.54    3488.875000
7218.18    3796.406000
7219.82    3676.162000
7221.45    3470.680000
7223.09    3267.982000
7224.73    3439.210000
7226.36    3317.735000
7228.00    3349.985000
7229.63    3436.923000
7231.27    3149.505000
7232.91    3197.909000
7234.54    3382.167000
7236.18    3660.621000
7237.81    3439.378000
7239.45    3228.533000
7241.09    3295.186000
7242.72    3662.979000
7244.36    3742.754000
7246.00    3528.400000
7247.63    3414.673000
7249.27    3467.103000
7250.90    3343.313000
7252.54    3542.067000
7254.18    3611.553000
7255.81    3371.866000
7257.45    3350.410000
7259.09    3375.231000
7260.72    3419.074000
7262.36    3516.119000
7263.99    3569.885000
7265.63    3355.778000
7267.27    3153.609000
7268.90    3305.221000
7270.54    3219.825000
7272.18    3133.243000
7273.81    3075.011000
7275.45    3266.476000
7277.08    3533.440000
7278.72    3500.147000
7280.36    3349.524000
7281.99    3586.551000
7283.63    3595.187000
7285.27    3522.893000
7286.90    3390.996000
7288.54    3638.856000
7290.17    3448.477000
7291.81    3331.438000
7293.44    3276.070000
7295.08    3130.035000
7296.72    3296.719000
7298.35    3358.978000
7299.99    3285.046000
7301.63    3580.880000
7303.26    3464.635000
7304.90    3350.030000
7306.53    3295.890000
7308.17    3426.035000
7309.81    3354.369000
7311.44    3281.333000
7313.08    3277.127000
7314.72    3586.003000
7316.35    3611.675000
7317.99    3538.957000
7319.62    3305.756000
7321.26    3279.904000
7322.90    3278.591000
7324.53    3306.919000
7326.17    3499.016000
7327.81    3783.402000
7329.44    3655.367000
7331.08    3345.182000
7332.72    3057.457000
7334.35    3170.213000
7335.99    3094.147000
7337.62    2916.536000
7339.26    3404.292000
7340.90    3590.836000
7342.53    3596.863000
7344.17    3450.290000
7345.80    3705.114000
7347.44    3458.008000
7349.08    3308.458000
7350.71    3281.238000
7352.35    3566.386000
7353.98    3448.425000
7355.62    3339.700000
7357.26    3288.045000
7358.89    3541.352000
7360.53    3412.385000
7362.17    3215.552000
7363.80    2937.188000
7365.44    3347.780000
7367.07    3591.883000
7368.71    3729.675000
7370.35    3607.948000
7371.98    3492.582000
7373.62    3490.613000
7375.26    3488.846000
7376.89    3342.586000
7378.53    3362.811000
7380.16    3341.922000
7381.80    3283.399000
7383.44    3065.114000
7385.07    3239.746000
7386.71    3333.371000
7388.35    3377.435000
7389.98    3390.909000
7391.62    3380.514000
7393.25    3311.856000
7394.89    3187.811000
7396.53    3277.855000
7398.16    3534.707000
7399.80    3714.240000
7401.44    3820.513000
7403.07    3514.390000
7404.71    3345.708000
7406.34    3244.721000
7407.98    3250.952000
7409.62    3202.886000
7411.25    3013.419000
7412.89    2944.968000
7414.52    3181.452000
7416.16    3398.439000
7417.80    3322.936000
7419.43    3245.041000
7421.07    3315.918000
7422.71    3304.064000
7424.34    3329.706000
7425.98    3387.467000
7427.61    3576.547000
7429.25    3530.659000
7430.89    3460.872000
7432.52    3388.460000
7434.16    3404.106000
7435.80    3419.528000
7437.43    3399.913000
7439.07    3378.698000
7440.70    3731.539000
7442.34    3428.000000
7443.98    3273.084000
7445.61    3211.691000
7447.25    3491.431000
7448.89    3462.738000
7450.52    3388.300000
7452.16    3261.743000
7453.79    3175.850000
7455.43    3367.056000
7457.07    3532.139000
7458.70    3681.106000
7460.34    3308.025000
7461.98    3411.621000
7463.61    3439.171000
7465.25    3252.058000
7466.88    3368.976000
7468.52    3322.690000
7470.16    3325.273000
7471.79    3551.555000
7473.43    3446.749000
7475.06    3398.584000
7476.70    3364.390000
7478.34    3354.633000
7479.97    3324.666000
7481.61    3382.538000
7483.24    3457.176000
7484.88    3476.914000
7486.52    3361.868000
7488.15    3391.910000
7489.79    3465.456000
7491.43    3374.294000
7493.06    3200.699000
7494.70    3192.746000
7496.34    3273.376000
7497.97    3059.543000
7499.61    3137.824000
7501.24    3170.125000
7502.88    3164.344000
7504.52    3069.693000
7506.15    3035.619000
7507.79    3118.915000
7509.43    3376.663000
7511.06    3303.962000
7512.70    3120.140000
7514.33    3043.250000
7515.97    3176.663000
7517.60    3374.600000
7519.24    3306.091000
7520.88    3265.695000
7522.52    3390.166000
7524.15    3386.166000
7525.79    3402.851000
7527.42    3419.500000
7529.06    3435.884000
7530.69    3093.269000
7532.33    2999.442000
7533.97    3002.093000
7535.60    3196.481000
7537.24    3303.257000
7538.88    3280.352000
7540.51    3208.979000
7542.15    3259.741000
7543.78    3153.252000
7545.42    3166.613000
7547.06    3234.594000
7548.69    3102.112000
7550.33    2991.289000
7551.97    3003.271000
7553.60    3107.000000
7555.24    3190.585000
7556.88    3312.629000
7558.51    3360.735000
7560.15    3326.575000
7561.78    3176.248000
7563.42    3041.999000
7565.06    2967.776000
7566.69    2993.473000
7568.33    3146.523000
7569.96    3113.525000
7571.60    3058.872000
7573.24    3001.451000
7574.87    3162.818000
7576.51    3128.704000
7578.15    3061.169000
