#Wavelength     Flux    Sky Spectrum 
#[Angstrom]   [Counts]     [Counts]
3662.25    61.967892    72.976990
3663.72    83.295952    101.639679
3665.19    33.421982    66.127151
3666.66    94.992958    99.287445
3668.13    86.126396    76.647491
3669.60    96.641876    103.207329
3671.07    73.469940    88.434227
3672.54    94.904716    118.509933
3674.01    94.197731    81.371483
3675.48    107.557915    109.162056
3676.95    110.828506    110.628044
3678.42    124.454414    131.403214
3679.89    112.192047    115.820282
3681.36    112.505180    102.352852
3682.83    99.676285    104.968300
3684.30    116.650589    134.700592
3685.77    100.411087    103.675667
3687.24    76.347687    102.799408
3688.71    86.401237    62.572865
3690.18    115.898788    103.502647
3691.65    116.417282    121.790245
3693.12    97.065773    85.160995
3694.59    95.233681    97.396828
3696.06    107.174805    110.270416
3697.53    96.654045    84.572983
3699.00    106.333191    105.147850
3700.47    138.166443    148.011963
3701.94    102.481865    105.252151
3703.41    109.424385    104.129951
3704.88    147.304382    168.829636
3706.35    145.541031    145.379425
3707.82    131.080261    126.302040
3709.30    102.074432    89.413277
3710.77    111.443680    85.870911
3712.24    109.393990    106.992058
3713.71    123.630287    106.549713
3715.18    115.748665    103.641487
3716.65    163.873535    142.265640
3718.12    130.698334    114.307777
3719.59    110.319893    89.977859
3721.06    124.288513    116.835205
3722.53    120.255653    119.134163
3724.00    102.014450    89.692711
3725.47    122.347023    113.107094
3726.94    129.093933    144.630600
3728.41    162.668777    178.307907
3729.88    135.514679    126.030663
3731.35    163.678284    166.211182
3732.82    124.248589    108.658928
3734.29    149.968826    156.164948
3735.76    115.457596    98.118820
3737.23    100.540993    105.366470
3738.70    88.001312    76.010788
3740.17    142.763031    135.792389
3741.64    103.153839    106.042358
3743.11    107.463791    90.304367
3744.58    77.535545    95.556145
3746.05    116.706703    113.740776
3747.52    153.563202    155.392380
3748.99    125.540184    109.282959
3750.46    132.448654    137.928482
3751.93    181.082916    169.902451
3753.40    152.059387    165.429230
3754.87    118.978889    108.185379
3756.34    135.220901    128.443771
3757.81    96.469910    77.110207
3759.28    98.196213    101.980331
3760.75    110.797470    110.392479
3762.22    116.416191    105.623756
3763.69    125.321068    118.896149
3765.16    123.654602    132.523621
3766.63    142.416443    141.698608
3768.10    143.961411    151.668289
3769.57    117.480156    113.213219
3771.04    129.330704    143.364212
3772.51    122.017967    127.943939
3773.98    116.858017    118.454430
3775.45    102.055435    89.974174
3776.92    89.114838    77.333778
3778.39    145.233368    148.237823
3779.86    186.176514    180.275406
3781.33    164.574005    156.702087
3782.80    124.781784    123.582565
3784.27    131.500641    98.776283
3785.74    187.367401    198.750702
3787.21    135.668182    129.184494
3788.68    115.599968    107.372429
3790.15    101.961510    103.563576
3791.62    107.955498    102.654762
3793.09    128.674515    157.814056
3794.56    94.069328    98.310959
3796.03    127.822197    119.680962
3797.50    129.960281    129.122726
3798.97    145.345627    138.037643
3800.44    100.956200    95.217171
3801.91    100.363388    87.547409
3803.38    84.214935    101.501999
3804.85    106.663460    129.479294
3806.32    89.309837    94.246819
3807.79    121.847237    123.669136
3809.26    81.831383    87.745552
3810.73    116.833633    103.773697
3812.20    167.135773    167.714569
3813.67    211.897888    208.088058
3815.14    166.116638    159.781815
3816.62    132.272049    146.902161
3818.09    131.902267    143.687668
3819.56    158.738464    161.354279
3821.03    168.834396    167.353439
3822.50    134.160004    123.826363
3823.97    132.709885    126.498383
3825.44    137.343140    137.156708
3826.91    170.106125    166.952499
3828.38    153.878036    149.858414
3829.85    144.940186    141.210937
3831.32    153.146057    135.561890
3832.79    208.554138    224.370392
3834.26    163.502380    169.983551
3835.73    187.837051    192.750763
3837.20    196.119019    188.963211
3838.67    179.410110    185.540451
3840.14    180.752090    195.693558
3841.61    205.288666    202.829437
3843.08    187.003708    175.860031
3844.55    179.436859    178.147278
3846.02    148.654175    154.687027
3847.49    179.103668    192.610626
3848.96    113.319176    132.018433
3850.43    117.627014    131.757706
3851.90    160.921677    189.451675
3853.37    174.420822    180.144714
3854.84    119.668228    141.183105
3856.31    158.707550    172.132034
3857.78    165.566177    163.385742
3859.25    135.876877    149.571701
3860.72    181.701599    182.574661
3862.19    139.764999    139.525955
3863.66    145.308578    144.507828
3865.13    175.087372    168.342514
3866.60    174.592896    159.865433
3868.07    165.253357    156.009811
3869.54    145.165939    144.312012
3871.01    148.414597    133.471405
3872.48    171.899048    155.978622
3873.95    130.393768    134.131363
3875.42    93.510376    72.959152
3876.89    128.882751    118.032997
3878.36    132.921066    149.495056
3879.83    119.571732    108.962547
3881.30    108.756378    117.795189
3882.77    127.721909    127.980026
3884.24    107.462837    80.032173
3885.71    138.626434    149.944656
3887.18    99.675301    115.848869
3888.65    100.796272    106.049255
3890.12    93.099785    94.361191
3891.59    98.902039    86.974236
3893.06    115.055702    109.155342
3894.53    103.666039    103.411354
3896.00    92.427582    96.277725
3897.47    112.011475    127.098434
3898.94    77.725136    63.112404
3900.41    138.286606    146.836761
3901.88    121.762184    121.306564
3903.35    138.762131    127.752998
3904.82    113.186729    100.718384
3906.29    105.229721    106.678131
3907.76    173.802795    182.031158
3909.23    143.224457    132.507797
3910.70    152.298615    154.896393
3912.17    102.744026    110.252502
3913.64    130.248032    136.433212
3915.11    87.090302    88.641571
3916.58    120.728195    123.017433
3918.05    126.007332    113.988945
3919.52    145.264084    169.665665
3920.99    121.310928    130.350388
3922.46    139.152695    143.900696
3923.94    159.301727    171.013657
3925.41    134.979797    142.732925
3926.88    139.686783    112.538788
3928.35    162.411484    132.703690
3929.82    139.462524    132.056870
3931.29    132.827194    141.255981
3932.76    151.443558    154.752579
3934.23    183.202499    186.048203
3935.70    157.868103    165.782394
3937.17    123.954948    113.162926
3938.64    118.257362    125.008575
3940.11    158.440613    156.230286
3941.58    152.561447    163.513260
3943.05    127.719986    133.883759
3944.52    151.243744    167.789047
3945.99    112.599854    125.731972
3947.46    179.301331    197.294693
3948.93    172.720566    189.359970
3950.40    122.206902    129.472229
3951.87    152.611542    151.465073
3953.34    159.509659    181.447800
3954.81    180.998840    197.947906
3956.28    195.732147    207.367981
3957.75    173.888153    169.143555
3959.22    151.909790    128.921555
3960.69    206.961349    201.482376
3962.16    198.476822    196.704727
3963.63    164.827835    156.136230
3965.10    170.078430    175.446167
3966.57    198.470657    189.676132
3968.04    207.260040    203.831863
3969.51    206.887314    201.138611
3970.98    222.352997    225.180649
3972.45    229.319473    241.660477
3973.92    240.706757    243.091476
3975.39    232.875122    241.706100
3976.86    185.219604    183.833374
3978.33    151.028412    156.132309
3979.80    169.237213    170.269897
3981.27    141.707260    126.800941
3982.74    165.597763    159.393204
3984.21    150.205383    142.868042
3985.68    166.625244    115.854179
3987.15    117.460907    102.717758
3988.62    120.599159    101.739128
3990.09    67.525978    74.565559
3991.56    97.876633    102.120201
3993.03    100.548386    108.761429
3994.50    113.471153    121.609962
3995.97    125.913956    141.497711
3997.44    172.830841    185.868362
3998.91    178.644928    180.219269
4000.38    146.134247    145.490631
4001.85    153.325958    154.317322
4003.32    151.492157    154.110870
4004.79    193.130295    206.137451
4006.26    178.134323    175.653976
4007.73    198.932541    201.984558
4009.20    212.233810    202.801956
4010.67    240.288071    245.031570
4012.14    232.757614    235.467468
4013.61    243.872620    263.852356
4015.08    248.638214    259.461884
4016.55    198.991013    199.361389
4018.02    228.923431    235.183456
4019.49    183.191376    171.201904
4020.96    161.920197    186.670151
4022.43    132.265045    154.443314
4023.90    176.212158    197.762268
4025.37    77.772408    58.202938
4026.84    57.303082    71.056747
4028.31    115.078041    104.583427
4029.78    127.493729    120.166695
4031.26    160.752716    180.882004
4032.73    182.324081    165.805664
4034.20    159.509140    141.286530
4035.67    181.537079    170.496048
4037.14    195.322372    200.437576
4038.61    231.451736    222.753418
4040.08    245.703705    264.875488
4041.55    209.635254    219.835266
4043.02    274.460266    262.497498
4044.49    261.000244    239.666412
4045.96    273.535400    261.769928
4047.43    300.723083    290.805786
4048.90    289.162872    307.276886
4050.37    305.438385    307.724213
4051.84    340.802338    316.153748
4053.31    313.860596    321.956451
4054.78    295.071075    304.436584
4056.25    281.028656    274.057343
4057.72    290.369049    280.785522
4059.19    315.110016    315.756226
4060.66    375.459442    379.488678
4062.13    303.150818    275.886261
4063.60    252.885712    247.133316
4065.07    299.129333    313.198364
4066.54    307.350922    288.846893
4068.01    308.992584    293.722229
4069.48    344.240784    359.272644
4070.95    317.716064    325.022797
4072.42    287.345154    270.333862
4073.89    344.136566    344.073029
4075.36    357.397247    360.602478
4076.83    362.841003    381.892303
4078.30    333.270264    335.107025
4079.77    321.467896    308.022766
4081.24    383.141113    372.599030
4082.71    377.496796    366.248108
4084.18    391.516510    385.688324
4085.65    307.162476    298.954834
4087.12    335.147522    324.421600
4088.59    391.702362    377.742828
4090.06    353.391571    359.781708
4091.53    358.098145    345.135223
4093.00    404.895782    404.336823
4094.47    333.670258    359.619598
4095.94    298.460358    301.718872
4097.41    379.374573    400.056793
4098.88    378.231781    393.109650
4100.35    350.222809    355.149384
4101.82    349.345856    328.001282
4103.29    322.443024    324.507904
4104.76    332.072021    353.068085
4106.23    310.364990    308.745819
4107.70    348.398437    373.965088
4109.17    429.528229    421.120880
4110.64    364.408783    373.517914
4112.11    380.155212    377.217804
4113.58    387.582214    397.136658
4115.05    380.080444    386.945587
4116.52    327.554779    315.865173
4117.99    380.372772    368.753143
4119.46    413.813538    407.817505
4120.93    318.036652    314.779572
4122.40    332.907288    338.154541
4123.87    368.617218    355.038635
4125.34    373.294556    360.197510
4126.81    401.749451    400.402008
4128.28    357.209259    362.033539
4129.75    353.838531    368.850555
4131.22    384.042206    391.846161
4132.69    391.329163    376.265900
4134.16    399.282501    408.284302
4135.63    380.375916    374.732819
4137.10    405.170074    401.225403
4138.58    308.702393    287.190521
4140.05    435.205261    434.686523
4141.52    424.739288    431.985138
4142.99    463.273285    464.282349
4144.46    440.961548    450.893219
4145.93    493.353912    498.233887
4147.40    446.266144    429.748047
4148.87    427.248047    416.030396
4150.34    385.785034    389.185822
4151.81    452.632019    454.305542
4153.28    397.134766    391.955231
4154.75    474.084900    495.517853
4156.22    428.469513    423.527161
4157.69    436.213867    437.273132
4159.16    400.393646    415.290863
4160.63    348.579102    342.155487
4162.10    394.118500    384.983185
4163.57    381.958313    378.276947
4165.04    452.646729    444.508606
4166.51    421.003265    411.133362
4167.98    359.221649    358.817444
4169.45    412.076782    412.737396
4170.92    449.096710    449.146088
4172.39    445.008331    459.068542
4173.86    430.831848    433.916595
4175.33    470.928619    470.304291
4176.80    488.372284    476.073273
4178.27    469.022247    483.640717
4179.74    475.898010    482.630096
4181.21    433.702271    416.992493
4182.68    501.071198    508.875153
4184.15    470.525024    473.675018
4185.62    424.476044    417.535370
4187.09    442.926910    436.435974
4188.56    454.975708    445.190979
4190.03    434.913971    447.317322
4191.50    402.097382    388.419250
4192.97    423.337494    416.703644
4194.44    448.380310    452.226593
4195.91    445.579102    439.203888
4197.38    399.572754    407.307465
4198.85    461.678558    476.450775
4200.32    477.426727    485.803955
4201.79    461.522644    455.964935
4203.26    512.655029    527.492676
4204.73    483.610016    488.783752
4206.20    489.497559    492.746765
4207.67    477.838165    487.524902
4209.14    450.519196    445.936005
4210.61    441.261414    439.685303
4212.08    428.848053    428.938019
4213.55    440.034668    433.574493
4215.02    437.685516    432.518951
4216.49    432.197754    431.550323
4217.96    450.317627    447.716797
4219.43    445.728729    439.372040
4220.90    447.027008    447.085510
4222.37    500.507629    495.551636
4223.84    511.509277    507.251251
4225.31    483.165253    488.757416
4226.78    459.970978    455.347321
4228.25    495.165833    490.213348
4229.72    506.296326    504.900940
4231.19    461.847717    463.535492
4232.66    509.543701    499.853027
4234.13    461.560394    446.397980
4235.60    470.802551    469.123657
4237.07    484.674347    479.102417
4238.54    437.421082    417.935852
4240.01    463.744751    480.993835
4241.48    541.082397    537.555847
4242.95    435.049713    439.898560
4244.42    520.262512    538.658447
4245.90    529.885559    528.630981
4247.37    484.635101    482.555328
4248.84    511.725555    506.543091
4250.31    542.666016    565.341248
4251.78    526.284363    522.532593
4253.25    524.986938    528.685913
4254.72    492.045868    505.106445
4256.19    446.189911    471.969635
4257.66    479.998962    485.268372
4259.13    493.087799    506.050537
4260.60    479.378906    485.178558
4262.07    518.752563    515.350647
4263.54    459.006531    460.344666
4265.01    528.974792    537.930603
4266.48    562.699463    570.468262
4267.95    535.687927    542.083923
4269.42    539.658569    545.558228
4270.89    563.739014    563.090271
4272.36    572.372131    576.655579
4273.83    548.403931    528.750671
4275.30    518.272522    518.438721
4276.77    567.419067    548.637939
4278.24    563.364136    545.437134
4279.71    606.123962    608.202332
4281.18    585.407532    566.180847
4282.65    571.498779    570.538269
4284.12    585.187622    592.440796
4285.59    562.071960    552.110291
4287.06    606.031372    623.939758
4288.53    518.573059    530.617615
4290.00    545.998413    549.050598
4291.47    531.278015    546.973633
4292.94    549.246887    551.834106
4294.41    523.554749    505.498322
4295.88    516.781006    511.444275
4297.35    622.953918    607.905823
4298.82    599.147400    598.218323
4300.29    579.912231    566.132141
4301.76    625.229492    635.086670
4303.23    599.202576    595.538330
4304.70    583.311890    586.758484
4306.17    656.717346    653.352661
4307.64    616.921143    609.362976
4309.11    655.369202    659.758606
4310.58    625.708130    635.123047
4312.05    619.700012    613.252258
4313.52    613.749390    611.218201
4314.99    592.100037    591.077515
4316.46    611.346680    624.954102
4317.93    560.914063    552.090454
4319.40    600.291199    612.731628
4320.87    622.428528    627.970215
4322.34    605.567017    609.592651
4323.81    655.147095    669.614014
4325.28    600.812073    602.790405
4326.75    631.335205    627.527344
4328.22    632.796631    627.486450
4329.69    606.876282    598.331909
4331.16    613.325134    605.220520
4332.63    622.958923    622.654358
4334.10    585.471069    583.037720
4335.57    506.868927    497.961914
4337.04    566.121826    565.772644
4338.51    571.732727    596.200317
4339.98    596.203125    598.947449
4341.45    622.972351    620.278564
4342.92    640.425842    635.260254
4344.39    707.085876    714.199219
4345.86    653.550781    672.967773
4347.33    688.017090    690.498718
4348.80    640.310730    638.586487
4350.27    600.913269    600.873230
4351.74    678.410400    680.190125
4353.22    618.936951    625.576660
4354.69    597.967957    600.228210
4356.16    625.653076    643.319641
4357.63    569.714417    560.907471
4359.10    563.175171    538.371399
4360.57    585.822327    547.147034
4362.04    517.978577    510.349670
4363.51    482.230194    475.523499
4364.98    504.091461    499.652527
4366.45    521.956482    532.088745
4367.92    456.399811    453.491089
4369.39    458.917664    448.662079
4370.86    486.325104    496.098267
4372.33    465.624115    468.493073
4373.80    480.764587    490.191376
4375.27    507.823456    509.043518
4376.74    564.726624    559.660645
4378.21    624.207153    623.515808
4379.68    693.604980    683.698181
4381.15    728.323242    723.516724
4382.62    741.529053    741.201721
4384.09    704.807251    699.730408
4385.56    757.676392    749.601807
4387.03    780.284607    778.432068
4388.50    710.387024    710.072205
4389.97    679.382202    663.472168
4391.44    651.092773    639.994751
4392.91    680.486450    682.533997
4394.38    764.261230    772.866272
4395.85    741.745605    747.242310
4397.32    790.218445    794.936157
4398.79    801.266113    791.175598
4400.26    815.870728    807.403381
4401.73    756.825867    757.169250
4403.20    686.375549    691.177368
4404.67    741.543579    749.861267
4406.14    696.758362    683.907349
4407.61    697.170105    685.376526
4409.08    771.118652    785.079773
4410.55    730.701965    737.002563
4412.02    799.497314    822.542664
4413.49    822.516846    838.983154
4414.96    713.022522    696.252075
4416.43    800.788574    791.927612
4417.90    828.455078    820.817810
4419.37    747.779297    739.250549
4420.84    769.062134    773.334778
4422.31    790.098389    785.321533
4423.78    829.645508    809.392029
4425.25    808.326050    804.277161
4426.72    856.205627    841.591125
4428.19    835.495850    833.035583
4429.66    932.561523    940.683472
4431.13    851.618286    853.687012
4432.60    979.150574    975.198730
4434.07    894.884827    894.676270
4435.54    770.523010    756.869202
4437.01    806.794617    804.612244
4438.48    873.824036    839.985840
4439.95    844.324707    834.731384
4441.42    817.800842    814.632507
4442.89    834.536011    833.571289
4444.36    799.512085    793.899902
4445.83    739.919739    736.595032
4447.30    803.581909    824.025208
4448.77    803.934387    807.236755
4450.24    738.327820    727.704834
4451.71    711.811096    720.188354
4453.18    777.135742    778.496765
4454.65    772.139160    776.612793
4456.12    781.907898    784.318970
4457.59    805.540527    805.955383
4459.06    906.626465    904.588989
4460.54    910.648376    908.734375
4462.01    921.057495    926.540710
4463.48    869.810547    872.344849
4464.95    894.991943    885.400757
4466.42    853.633789    874.662964
4467.89    814.071899    813.091309
4469.36    863.451477    867.126099
4470.83    864.384338    860.856995
4472.30    893.803772    894.436829
4473.77    915.619141    912.696472
4475.24    872.994568    886.140686
4476.71    878.045593    885.093445
4478.18    956.809570    979.087463
4479.65    931.144958    918.478577
4481.12    993.596741    995.911621
4482.59    952.514282    960.885559
4484.06    1035.082764    1034.699341
4485.53    979.430725    979.171082
4487.00    987.179199    981.844055
4488.47    986.350159    985.388428
4489.94    988.929993    986.911865
4491.41    1011.395447    1020.339722
4492.88    968.527588    980.455688
4494.35    985.183594    980.495789
4495.82    999.158569    994.850952
4497.29    980.202515    985.082458
4498.76    1009.218323    1018.032471
4500.23    977.463562    889.814026
4501.70    1027.617188    1036.343140
4503.17    995.432617    1004.693054
4504.64    1084.859619    1075.715820
4506.11    1108.294312    1113.748535
4507.58    1107.507935    1113.976563
4509.05    1072.056519    1077.330811
4510.52    1060.520386    1060.297119
4511.99    1073.873291    1067.940674
4513.46    1092.511353    1103.251343
4514.93    1101.688232    1101.856079
4516.40    1170.494751    1177.922607
4517.87    1116.821411    1130.302979
4519.34    1133.618286    1128.302612
4520.81    1041.942627    1045.747070
4522.28    1010.904419    1010.303223
4523.75    1022.428772    1020.569397
4525.22    924.877380    916.311401
4526.69    1012.079346    998.701721
4528.16    1048.218018    1039.014404
4529.63    1004.043152    987.038635
4531.10    1027.270752    1032.756226
4532.57    1002.176147    1001.969482
4534.04    1141.861328    1131.566162
4535.51    1103.100708    1104.201172
4536.98    1118.140381    1108.039917
4538.45    1127.509033    1117.204590
4539.92    1188.311523    1196.965942
4541.39    1244.919067    1257.546875
4542.86    1180.545654    1191.634155
4544.33    1175.726929    1168.232056
4545.80    1338.362549    1340.186157
4547.27    1190.383423    1170.720703
4548.74    1193.013672    1195.798462
4550.21    1176.007324    1190.936768
4551.68    1237.253174    1245.882568
4553.15    1245.582153    1248.620972
4554.62    1319.508057    1322.735840
4556.09    1308.451050    1305.041016
4557.56    1295.492310    1298.814575
4559.03    1242.573608    1230.008789
4560.50    1237.110474    1234.692383
4561.97    1185.070190    1193.358521
4563.44    1141.103149    1143.168457
4564.91    1217.435669    1214.700928
4566.38    1282.035400    1273.779785
4567.86    1228.347168    1223.971802
4569.33    1280.296021    1273.283691
4570.80    1343.561401    1331.546143
4572.27    1320.751953    1310.491333
4573.74    1352.290039    1342.476196
4575.21    1299.356689    1276.443481
4576.68    1363.862061    1372.931763
4578.15    1336.359131    1323.903320
4579.62    1424.828003    1421.143188
4581.09    1330.797852    1339.221191
4582.56    1252.384033    1257.273560
4584.03    1323.788574    1331.955444
4585.50    1324.328491    1309.522827
4586.97    1304.805786    1294.651855
4588.44    1293.075317    1295.420166
4589.91    1310.345703    1310.159302
4591.38    1300.404785    1298.079224
4592.85    1320.694580    1309.579224
4594.32    1215.601685    1217.885010
4595.79    1127.228394    1134.937744
4597.26    1186.248291    1180.422485
4598.73    1249.551880    1247.121948
4600.20    1291.608643    1290.676147
4601.67    1258.689697    1245.599976
4603.14    1230.156494    1215.691528
4604.61    1221.779907    1214.800415
4606.08    1277.661621    1284.402344
4607.55    1287.640869    1289.237061
4609.02    1268.235107    1266.737061
4610.49    1361.760254    1378.559448
4611.96    1324.621338    1325.346558
4613.43    1299.603638    1298.428589
4614.90    1305.476685    1311.687012
4616.37    1343.678589    1346.052856
4617.84    1342.795654    1332.311646
4619.31    1339.901489    1331.219482
4620.78    1297.093140    1305.262451
4622.25    1288.386597    1293.240479
4623.72    1344.526733    1340.745361
4625.19    1330.237793    1323.419678
4626.66    1358.920166    1352.325195
4628.13    1371.172485    1366.965332
4629.60    1505.438354    1505.487671
4631.07    1515.946045    1516.768311
4632.54    1361.593140    1366.357910
4634.01    1380.648926    1377.756958
4635.48    1436.710693    1435.273560
4636.95    1417.348633    1417.991455
4638.42    1417.566406    1417.587158
4639.89    1485.775146    1477.853760
4641.36    1548.245728    1554.661743
4642.83    1469.143677    1476.996704
4644.30    1419.785034    1415.569092
4645.77    1384.754028    1394.718262
4647.24    1426.270630    1428.540405
4648.71    1399.362183    1396.123779
4650.18    1373.990601    1368.535034
4651.65    1346.529297    1330.678101
4653.12    1393.997681    1395.061646
4654.59    1377.397095    1392.183105
4656.06    1457.386353    1465.075073
4657.53    1454.594116    1454.680298
4659.00    1477.509766    1476.040894
4660.47    1463.374390    1456.401489
4661.94    1397.389526    1391.841309
4663.41    1389.211182    1403.646851
4664.88    1418.968872    1425.869141
4666.35    1425.273071    1431.921753
4667.82    1416.384521    1431.415161
4669.29    1485.285034    1495.920044
4670.76    1443.181885    1440.627319
4672.23    1469.540283    1463.407104
4673.70    1495.644775    1485.565430
4675.18    1441.938477    1445.727539
4676.65    1488.392212    1480.099609
4678.12    1561.415283    1570.588867
4679.59    1599.325684    1602.844849
4681.06    1579.689209    1569.202393
4682.53    1578.467896    1587.924927
4684.00    1626.656982    1627.450073
4685.47    1613.432373    1601.757324
4686.94    1618.181641    1616.493774
4688.41    1566.107056    1551.849121
4689.88    1648.302002    1645.256104
4691.35    1594.695312    1592.344849
4692.82    1615.981567    1617.198364
4694.29    1628.759766    1644.383179
4695.76    1534.951782    1532.296143
4697.23    1581.078979    1546.653320
4698.70    1577.996460    1564.833496
4700.17    1581.537964    1579.116211
4701.64    1532.989258    1527.336914
4703.11    1597.506958    1590.907227
4704.58    1545.752075    1542.182129
4706.05    1561.715576    1560.982788
4707.52    1517.774902    1500.405029
4708.99    1575.250610    1579.014282
4710.46    1492.897095    1494.038086
4711.93    1417.357178    1412.127686
4713.40    1507.100220    1510.183228
4714.87    1492.139526    1496.343872
4716.34    1479.055664    1478.940552
4717.81    1466.602661    1472.211304
4719.28    1497.658325    1496.550415
4720.75    1413.878418    1403.257324
4722.22    1443.663086    1439.991455
4723.69    1527.487183    1522.981934
4725.16    1509.644775    1500.192017
4726.63    1522.236816    1519.305298
4728.10    1504.571533    1492.631592
4729.57    1604.530273    1603.491455
4731.04    1527.161865    1521.936890
4732.51    1540.252808    1541.909058
4733.98    1482.343750    1496.346924
4735.45    1490.189331    1498.420776
4736.92    1420.381714    1431.651245
4738.39    1372.891235    1368.980835
4739.86    1372.073608    1364.320679
4741.33    1462.999023    1470.848389
4742.80    1426.031616    1425.393188
4744.27    1508.935059    1486.055420
4745.74    1526.284180    1525.909424
4747.21    1429.691406    1428.964600
4748.68    1451.092896    1464.204224
4750.15    1524.618042    1528.996338
4751.62    1472.929199    1473.908203
4753.09    1524.645996    1522.401611
4754.56    1496.894409    1504.757080
4756.03    1522.084961    1519.564209
4757.50    1537.933716    1536.832764
4758.97    1529.690552    1535.946289
4760.44    1547.139771    1536.930054
4761.91    1557.309814    1553.900757
4763.38    1508.244507    1510.059937
4764.85    1592.958252    1592.672241
4766.32    1505.891724    1504.705444
4767.79    1545.508179    1545.692017
4769.26    1544.047119    1545.166504
4770.73    1487.632568    1476.274780
4772.20    1437.775635    1446.913452
4773.67    1498.397339    1499.757568
4775.14    1482.666992    1476.874023
4776.61    1502.321533    1514.481812
4778.08    1469.018921    1454.487427
4779.55    1525.288208    1537.039673
4781.02    1494.477905    1498.404785
4782.50    1501.794189    1504.081665
4783.97    1543.983643    1542.485840
4785.44    1628.973022    1645.991089
4786.91    1630.140869    1630.914795
4788.38    1619.682739    1625.661011
4789.85    1583.567139    1571.994995
4791.32    1629.597046    1624.896729
4792.79    1705.943604    1690.016235
4794.26    1802.333862    1796.979736
4795.73    1683.819458    1679.859619
4797.20    1637.525635    1628.633423
4798.67    1631.243774    1635.235718
4800.14    1594.912354    1595.310791
4801.61    1532.138672    1523.632813
4803.08    1641.754517    1647.203857
4804.55    1585.383057    1586.460693
4806.02    1596.594238    1588.672852
4807.49    1629.191040    1631.938965
4808.96    1679.305542    1676.954590
4810.43    1738.946289    1726.595581
4811.90    1694.715820    1696.061401
4813.37    1781.230347    1775.177490
4814.84    1742.045776    1730.742065
4816.31    1785.981934    1775.866577
4817.78    1777.364380    1775.042847
4819.25    1782.149536    1772.583496
4820.72    1796.330688    1817.103394
4822.19    1752.541992    1762.548950
4823.66    1804.698242    1799.697144
4825.13    1775.246948    1755.651001
4826.60    1771.969727    1782.668823
4828.07    1725.439819    1702.894653
4829.54    1752.064941    1744.556641
4831.01    1778.956177    1775.181641
4832.48    1700.616943    1693.061890
4833.95    1650.704102    1659.464600
4835.42    1676.279297    1680.819702
4836.89    1717.163208    1723.821533
4838.36    1649.155518    1670.124023
4839.83    1686.062988    1662.096558
4841.30    1732.793091    1719.729370
4842.77    1753.910400    1760.765259
4844.24    1772.878174    1766.500122
4845.71    1717.241943    1727.373169
4847.18    1802.310913    1808.147461
4848.65    1851.786011    1846.544556
4850.12    1804.914063    1808.469604
4851.59    1820.336792    1812.847168
4853.06    1737.128174    1754.186768
4854.53    1736.294678    1744.098877
4856.00    1809.818848    1809.167603
4857.47    1767.117676    1763.673828
4858.94    1797.218750    1794.300415
4860.41    1732.603882    1719.705078
4861.88    1716.058472    1718.583740
4863.35    1889.679321    1883.227905
4864.82    1844.911987    1852.809814
4866.29    1824.529175    1816.547607
4867.76    1871.064575    1865.484497
4869.23    1967.985718    1967.234985
4870.70    1849.411743    1844.861328
4872.17    1880.646851    1872.119873
4873.64    1908.390869    1881.429321
4875.11    1869.385864    1864.999878
4876.58    1836.984619    1852.664062
4878.05    1880.680298    1880.775879
4879.52    1801.910889    1803.521606
4880.99    1916.658447    1924.437622
4882.46    1818.841064    1819.971191
4883.93    1861.917603    1867.071655
4885.40    1883.213867    1882.528442
4886.87    1936.348999    1927.715210
4888.34    1941.504272    1943.490723
4889.82    1870.402344    1854.893066
4891.29    2040.449585    2035.756958
4892.76    1899.145874    1906.936768
4894.23    1857.729858    1859.357056
4895.70    1917.889771    1918.650635
4897.17    1861.924927    1871.103638
4898.64    1892.885254    1899.258789
4900.11    1990.391968    1982.128052
4901.58    1972.118042    1976.233887
4903.05    1850.195801    1858.526367
4904.52    1843.932007    1838.842529
4905.99    1928.131592    1932.438477
4907.46    1812.322144    1815.671509
4908.93    1877.047852    1884.000000
4910.40    1966.348389    1955.844482
4911.87    1927.831177    1908.370850
4913.34    1885.109131    1887.429932
4914.81    1866.282227    1860.058105
4916.28    1876.847412    1876.532104
4917.75    1862.986938    1853.184082
4919.22    1879.002197    1854.203979
4920.69    1898.868530    1895.190796
4922.16    1893.429932    1900.381226
4923.63    1837.193359    1819.272949
4925.10    1881.161987    1880.521606
4926.57    1865.856079    1864.273804
4928.04    1831.743652    1825.863525
4929.51    1787.965820    1770.564453
4930.98    1725.315063    1731.305298
4932.45    1719.909790    1715.077637
4933.92    1728.835205    1727.344849
4935.39    1692.477295    1693.903076
4936.86    1727.776978    1729.291138
4938.33    1779.503662    1783.873779
4939.80    1732.848633    1720.089233
4941.27    1764.958862    1770.484375
4942.74    1784.578979    1798.483643
4944.21    1779.886230    1786.459106
4945.68    1800.373413    1787.208008
4947.15    1882.108887    1890.293091
4948.62    1842.930664    1843.160278
4950.09    1870.013306    1875.638794
4951.56    1882.139038    1855.778564
4953.03    1897.010376    1898.735718
4954.50    1859.505127    1876.163086
4955.97    1889.109863    1896.110107
4957.44    1817.577881    1808.974487
4958.91    1895.805176    1889.682373
4960.38    1868.910645    1873.835571
4961.85    1826.423218    1803.391479
4963.32    1904.427368    1900.017822
4964.79    1900.194458    1889.056152
4966.26    1883.887085    1876.012939
4967.73    2008.799805    2001.019653
4969.20    2068.478271    2057.615967
4970.67    2153.273926    2158.931152
4972.14    2086.598389    2088.045166
4973.61    2036.822876    2048.771729
4975.08    2061.329346    2061.241699
4976.55    2068.698975    2056.497803
4978.02    2030.985840    2018.475464
4979.49    2088.772217    2088.154541
4980.96    2088.949219    2090.200195
4982.43    2033.020142    2029.080566
4983.90    2045.347412    2025.506470
4985.37    1999.845703    2005.868652
4986.84    2010.810669    2021.404541
4988.31    1949.162354    1946.264771
4989.78    1990.980591    1998.159058
4991.25    1917.213867    1904.151489
4992.72    1914.964111    1925.695679
4994.19    1961.678589    1947.852905
4995.66    1900.569946    1907.958130
4997.14    1958.007324    1959.417236
4998.61    1994.496826    1977.024292
5000.08    2024.604980    2037.555420
5001.55    2072.322754    2078.029785
5003.02    2160.240479    2169.750732
5004.49    2116.675049    2124.190674
5005.96    2124.460937    2134.659424
5007.43    2070.337646    2062.180908
5008.90    2072.590576    2058.543213
5010.37    2113.029053    2119.993896
5011.84    2076.781250    2073.839111
5013.31    2051.797119    2040.907104
5014.78    2152.904297    2158.964844
5016.25    2074.819336    2074.762939
5017.72    2097.380127    2103.387207
5019.19    2203.901855    2205.850098
5020.66    2238.118896    2238.696289
5022.13    2302.598877    2319.775879
5023.60    2258.649170    2300.563965
5025.07    2233.421387    2235.412598
5026.54    2133.665771    2142.114258
5028.01    2220.951904    2205.370605
5029.48    2033.728394    2033.989746
5030.95    2166.171387    2152.868164
5032.42    2071.942139    2079.926758
5033.89    2033.467773    2037.866333
5035.36    2131.240479    2141.711426
5036.83    2071.318604    2063.725830
5038.30    2007.208374    2017.468750
5039.77    2122.230225    2147.947510
5041.24    2022.378906    2021.107056
5042.71    2079.021729    2073.087158
5044.18    2132.083252    2120.175537
5045.65    2088.702393    2095.604736
5047.12    2205.033447    2198.591553
5048.59    2140.813965    2145.205322
5050.06    2152.119385    2166.056641
5051.53    2078.940918    2079.120117
5053.00    2063.400879    2064.145264
5054.47    1953.683838    1936.249512
5055.94    1869.766113    1872.322876
5057.41    1919.722778    1922.908081
5058.88    1922.605103    1925.762817
5060.35    1983.103149    1965.990112
5061.82    1990.506958    1984.090942
5063.29    2128.980713    2123.259033
5064.76    2095.269531    2089.578857
5066.23    2075.892334    2060.398682
5067.70    2057.441406    2046.739380
5069.17    2065.078369    2073.722168
5070.64    2160.865723    2171.565674
5072.11    2080.378174    2080.420410
5073.58    2073.687744    2067.186279
5075.05    2019.039429    2019.035522
5076.52    2030.262573    2018.384277
5077.99    2032.212402    2022.826660
5079.46    2061.692383    2056.851807
5080.93    2043.496582    2045.626709
5082.40    2038.008301    2047.143433
5083.87    2065.838623    2069.117676
5085.34    2025.199341    2029.467651
5086.81    2011.718872    2013.890503
5088.28    1910.699951    1914.463257
5089.75    1949.206421    1959.045166
5091.22    1947.004761    1953.547852
5092.69    1902.156738    1889.987549
5094.16    2069.974609    2078.213135
5095.63    1975.677368    1974.185059
5097.10    2030.160278    2029.501099
5098.57    2056.210937    2074.946289
5100.04    2001.383179    1997.650024
5101.51    2070.194092    2070.316162
5102.98    2037.797974    2024.336670
5104.46    2069.972412    2077.437500
5105.93    2084.088379    2084.357422
5107.40    2104.625977    2108.946045
5108.87    2146.113770    2136.214600
5110.34    2119.605957    2125.796143
5111.81    2106.342041    2117.403564
5113.28    2065.327881    2066.251709
5114.75    1991.917236    1994.479248
5116.22    2058.955078    2064.728516
5117.69    2021.728882    2015.635132
5119.16    2053.175049    2034.973267
5120.63    2108.266113    2104.414063
5122.10    2126.243896    2113.584229
5123.57    2155.437988    2171.447998
5125.04    2118.099854    2120.834473
5126.51    2031.061890    2036.603760
5127.98    2147.333252    2143.372314
5129.45    2216.456055    2211.416016
5130.92    2131.385742    2131.854492
5132.39    2310.084229    2299.349609
5133.86    2148.434814    2146.849854
5135.33    2255.487305    2264.120850
5136.80    2259.300293    2248.576904
5138.27    2285.069580    2289.363037
5139.74    2304.284424    2303.429443
5141.21    2129.629639    2125.455811
5142.68    2148.073486    2145.640381
5144.15    2072.386475    2080.001709
5145.62    2130.732910    2129.252197
5147.09    2084.255371    2090.519043
5148.56    2100.533447    2112.257324
5150.03    2073.189453    2059.408936
5151.50    2112.492188    2113.531006
5152.97    2194.988770    2198.805908
5154.44    2144.745361    2144.871094
5155.91    2009.715088    2016.312378
5157.38    2092.379883    2108.662109
5158.85    2105.068359    2103.221191
5160.32    2054.250488    2045.493652
5161.79    2016.244629    2002.972290
5163.26    2194.641846    2194.564209
5164.73    2101.340332    2100.040771
5166.20    2164.128174    2167.042480
5167.67    2127.857666    2131.809082
5169.14    2222.293701    2234.914795
5170.61    2121.788818    2118.636475
5172.08    2167.939453    2176.720459
5173.55    2125.604248    2132.792480
5175.02    2159.448730    2151.796875
5176.49    2140.550537    2139.750977
5177.96    2174.717773    2183.811279
5179.43    1961.692993    1957.420776
5180.90    2105.201416    2096.170166
5182.37    2107.962402    2110.235107
5183.84    2073.277100    2052.489746
5185.31    2221.734619    2223.643555
5186.78    2178.118164    2178.863770
5188.25    2145.842285    2143.767334
5189.72    2102.006104    2113.058350
5191.19    2226.788330    2217.329590
5192.66    2195.148926    2206.211670
5194.13    2240.872803    2242.047363
5195.60    2198.574463    2189.087158
5197.07    2232.403076    2232.500000
5198.54    2235.068848    2234.936523
5200.01    2085.991211    2092.456543
5201.48    2167.110352    2182.456055
5202.95    2016.890625    2017.305420
5204.42    1988.055176    1978.362183
5205.89    2016.128662    2025.362915
5207.36    1995.040039    2007.215454
5208.83    2120.321045    2106.997803
5210.30    2094.056885    2095.269775
5211.78    2122.785889    2122.013428
5213.25    2109.503174    2106.333008
5214.72    2194.902588    2201.697754
5216.19    2266.258545    2282.597412
5217.66    2025.616577    2029.306763
5219.13    2062.369873    2066.537109
5220.60    2111.351318    2109.661133
5222.07    2104.362793    2109.088379
5223.54    2073.928467    2081.404541
5225.01    2076.827393    2066.586426
5226.48    2108.734131    2104.721680
5227.95    2133.101562    2129.199951
5229.42    2129.576172    2141.348877
5230.89    2149.292725    2135.665527
5232.36    2224.600586    2234.925537
5233.83    2080.358887    2093.802246
5235.30    2087.245117    2097.024658
5236.77    2204.287109    2210.482178
5238.24    2117.315674    2126.921387
5239.71    2083.270996    2087.975098
5241.18    1987.360962    1995.166382
5242.65    1912.804688    1921.542725
5244.12    1876.723145    1880.785278
5245.59    1748.463867    1747.239502
5247.06    1639.562744    1649.707275
5248.53    1722.329834    1722.342651
5250.00    1634.696899    1631.859985
5251.47    1773.343018    1792.902710
5252.94    1727.274292    1728.755615
5254.41    1783.453857    1795.013306
5255.88    1857.730835    1858.169434
5257.35    1858.705566    1871.734985
5258.82    1934.397095    1948.557495
5260.29    1880.698608    1903.703369
5261.76    1870.765747    1873.401245
5263.23    1973.642456    1989.923584
5264.70    2017.740601    2028.758301
5266.17    2050.111816    2048.700439
5267.64    2072.641357    2080.421143
5269.11    2159.255371    2170.793213
5270.58    2216.626953    2223.133057
5272.05    2191.275146    2203.257568
5273.52    2142.528076    2141.207031
5274.99    2228.213623    2233.295898
5276.46    2307.104004    2303.882080
5277.93    2267.488037    2268.523193
5279.40    2237.301270    2294.818604
5280.87    2214.373779    2209.639893
5282.34    2264.510254    2263.467041
5283.81    2124.590332    2125.699463
5285.28    2205.957520    2204.140625
5286.75    2231.884766    2232.460205
5288.22    2191.343262    2197.517090
5289.69    2271.482422    2270.831299
5291.16    2358.732178    2370.091553
5292.63    2241.543945    2243.851318
5294.10    2379.910645    2377.393799
5295.57    2479.482422    2468.908691
5297.04    2392.546387    2410.240479
5298.51    2265.515137    2256.519531
5299.98    2244.710937    2251.389160
5301.45    2320.564453    2335.584961
5302.92    2325.781982    2320.060791
5304.39    2284.152100    2282.352539
5305.86    2364.791504    2373.350342
5307.33    2329.648193    2343.740234
5308.80    2324.553711    2320.531494
5310.27    2407.516846    2410.386719
5311.74    2426.120605    2432.246094
5313.21    2459.811279    2457.165283
5314.68    2548.693359    2554.586914
5316.15    2489.332275    2491.309326
5317.62    2518.594238    2505.922119
5319.09    2614.428955    2619.952881
5320.57    2519.189453    2516.829834
5322.04    2540.185547    2546.260498
5323.51    2507.850830    2521.693359
5324.98    2454.010010    2455.764893
5326.45    2494.857666    2506.759766
5327.92    2479.559570    2479.205322
5329.39    2444.104980    2447.505859
5330.86    2440.494629    2441.233398
5332.33    2420.946289    2419.187500
5333.80    2487.269775    2507.454834
5335.27    2442.033691    2449.365967
5336.74    2414.909912    2410.158936
5338.21    2481.313721    2480.258789
5339.68    2342.576904    2336.880859
5341.15    2361.363281    2363.930420
5342.62    2327.907715    2330.014404
5344.09    2288.390869    2274.544922
5345.56    2177.783203    2185.198975
5347.03    2205.058350    2203.819580
5348.50    2198.444824    2193.698975
5349.97    2247.562744    2239.963623
5351.44    2336.953613    2336.971680
5352.91    2373.545410    2377.466064
5354.38    2473.499023    2469.842529
5355.85    2421.240479    2423.540283
5357.32    2491.110596    2497.837158
5358.79    2506.806641    2505.139648
5360.26    2453.597412    2454.947266
5361.73    2541.689453    2542.610840
5363.20    2655.043213    2650.557373
5364.67    2665.357178    2672.331543
5366.14    2655.367676    2650.130615
5367.61    2719.545410    2717.868896
5369.08    2755.296143    2763.746582
5370.55    2747.706543    2740.572021
5372.02    2726.528320    2723.017578
5373.49    2685.157471    2684.448242
5374.96    2639.181885    2637.027344
5376.43    2623.046875    2617.256836
5377.90    2646.875488    2645.655518
5379.37    2603.694824    2603.705811
5380.84    2686.965332    2684.883301
5382.31    2669.598633    2674.452148
5383.78    2655.266113    2671.921387
5385.25    2849.079102    2856.281738
5386.72    2817.267334    2820.607178
5388.19    2791.442383    2796.237793
5389.66    2797.372070    2809.400879
5391.13    2788.608398    2796.205566
5392.60    2823.661621    2811.463379
5394.07    2786.440674    2781.744385
5395.54    2707.650879    2718.010254
5397.01    2684.309326    2686.234131
5398.48    2763.949219    2758.054199
5399.95    2812.668701    2810.522949
5401.42    2715.450684    2710.900391
5402.89    2583.440430    2586.879395
5404.36    2538.276855    2538.637451
5405.83    2595.741211    2591.703613
5407.30    2479.199219    2464.530273
5408.77    2493.054199    2485.431152
5410.24    2517.651367    2514.023682
5411.71    2562.969971    2565.363525
5413.18    2665.998535    2655.604248
5414.65    2660.928711    2658.286377
5416.12    2722.395020    2729.714355
5417.59    2743.442871    2751.579590
5419.06    2702.370605    2711.034668
5420.53    2647.664551    2643.177734
5422.00    2654.297119    2654.372803
5423.47    2743.779297    2755.801025
5424.94    2660.703125    2660.925781
5426.41    2675.238037    2675.811035
5427.89    2768.613281    2766.566406
5429.36    2740.626709    2731.462402
5430.83    2688.146729    2688.277100
5432.30    2801.210693    2801.925781
5433.77    2913.997803    2915.477295
5435.24    2815.236816    2803.643799
5436.71    2877.265381    2882.593018
5438.18    2936.912598    2936.552734
5439.65    2927.770996    2926.068359
5441.12    2879.678711    2879.159912
5442.59    2778.364258    2781.214844
5444.06    2726.219482    2736.949707
5445.53    2812.521973    2821.798096
5447.00    2699.260742    2696.148926
5448.47    2674.294678    2663.853516
5449.94    2731.932861    2727.047119
5451.41    2722.467773    2716.108398
5452.88    2730.245605    2722.846680
5454.35    2805.414551    2805.912598
5455.82    2748.428955    2752.422119
5457.29    2917.160645    2923.785156
5458.76    2788.489502    2786.805420
5460.23    2770.577148    2772.485107
5461.70    2784.211670    2782.948242
5463.17    2723.910400    2720.816895
5464.64    2808.114502    2821.289063
5466.11    2790.418701    2800.040039
5467.58    2807.877441    2801.145752
5469.05    2793.902100    2779.086914
5470.52    2750.182617    2762.988770
5471.99    2812.513428    2817.809570
5473.46    2797.535400    2802.672119
5474.93    2569.775635    2574.780762
5476.40    2674.567871    2674.209717
5477.87    2687.637939    2700.114746
5479.34    2549.144043    2556.938965
5480.81    2690.084473    2693.900391
5482.28    2701.163330    2702.901855
5483.75    2678.913818    2686.011719
5485.22    2565.158691    2567.319336
5486.69    2575.059814    2582.062500
5488.16    2584.797363    2587.724854
5489.63    2692.508545    2691.962402
5491.10    2629.501221    2636.739746
5492.57    2552.773438    2567.604492
5494.04    2793.528076    2795.018066
5495.51    2834.613281    2827.238281
5496.98    2959.634766    2961.859131
5498.45    2928.579590    2941.591797
5499.92    2813.314453    2823.697998
5501.39    2878.259521    3133.529541
5502.86    2951.682129    3996.509033
5504.33    2926.796387    4027.253174
5505.80    2774.150146    3193.775391
5507.27    2915.615234    2924.498291
5508.74    2843.044434    2845.460205
5510.21    2860.429932    2868.723633
5511.68    2778.854492    2786.200439
5513.15    2805.695313    2805.853271
5514.62    2783.320312    2777.533203
5516.09    2785.100830    2797.528564
5517.56    2927.637695    2940.601807
5519.03    2863.404297    2858.526611
5520.50    2839.769287    2831.906738
5521.97    2929.493896    2940.312744
5523.44    2890.575928    2897.219971
5524.91    2941.283203    2941.243408
5526.38    2948.037109    2946.573730
5527.85    2870.208008    2855.527100
5529.32    2844.413818    2843.380371
5530.79    2852.274170    2853.705566
5532.26    2844.042725    2848.177490
5533.73    2771.535645    2782.241211
5535.21    2687.768555    2693.636963
5536.68    2756.550293    2765.126221
5538.15    2859.014404    2864.478516
5539.62    2828.017578    2834.144043
5541.09    2819.576172    2836.263184
5542.56    2925.663574    2924.980469
5544.03    2822.141357    2813.044922
5545.50    2886.837158    2885.242676
5546.97    2879.306641    2890.460693
5548.44    2871.146973    2894.377930
5549.91    2900.073242    2898.887207
5551.38    2884.389893    2878.740967
5552.85    2862.412354    2869.741211
5554.32    2880.073242    2886.422852
5555.79    2736.774658    2738.389404
5557.26    2762.538330    2770.729736
5558.73    2733.444824    2737.482910
5560.20    2782.444336    2811.250488
5561.67    2753.627197    2755.720703
5563.14    2729.111816    2718.555176
5564.61    2750.613281    2760.833740
5566.08    2849.950439    2857.078125
5567.55    2725.912842    2754.886230
5569.02    2879.160156    2865.789307
5570.49    2809.818115    2797.438232
5571.96    2867.835449    2869.354492
5573.43    2931.991943    2886.836914
5574.90    2818.333984    2727.062500
5576.37    2647.279785    2647.081299
5577.84    2813.333740    2748.386230
5579.31    2900.850830    2857.533936
5580.78    2765.138672    2759.266113
5582.25    2765.870117    2788.057861
5583.72    2916.971436    2920.259277
5585.19    2853.369141    2851.147705
5586.66    2971.088867    2986.589600
5588.13    2754.114502    2755.608643
5589.60    2878.105225    2883.603516
5591.07    2908.180176    2910.117432
5592.54    2860.444336    2851.822266
5594.01    2772.560303    2760.982666
5595.48    2734.114990    2728.671387
5596.95    2877.095947    2893.603516
5598.42    2930.823975    2953.508545
5599.89    2959.701172    2976.840332
5601.36    2838.365723    2834.712646
5602.83    2941.328613    2949.240234
5604.30    2971.456055    2972.446045
5605.77    2966.896729    2971.349121
5607.24    2984.328613    2983.741455
5608.71    2946.140381    2942.085205
5610.18    2985.411133    2971.100586
5611.65    2903.320557    2906.010986
5613.12    2792.625732    2799.968262
5614.59    2888.301025    2894.225586
5616.06    2965.226563    2975.960205
5617.53    2881.142578    2879.453125
5619.00    2897.819824    2887.748047
5620.47    2830.858887    2827.881104
5621.94    3084.262451    3088.760010
5623.41    3017.517822    2999.376221
5624.88    3034.982910    3048.666748
5626.35    3105.164795    3106.150146
5627.82    2969.251953    2968.483643
5629.29    3061.904541    3070.655518
5630.76    3065.234619    3057.766357
5632.23    3006.863037    2991.221680
5633.70    3084.850830    3089.894287
5635.17    3110.125732    3116.707031
5636.64    3062.012207    3052.365723
5638.11    3033.470459    3021.556641
5639.58    3058.258057    3052.035645
5641.05    3060.615479    3054.229736
5642.53    3000.986328    2992.093506
5644.00    2930.693359    2923.929443
5645.47    2863.599121    2871.629150
5646.94    2930.406006    2928.433350
5648.41    2896.734131    2898.735352
5649.88    2942.455322    2943.986816
5651.35    2924.736572    2924.028076
5652.82    2880.588135    2893.189697
5654.29    3061.108643    3053.151855
5655.76    3013.673096    3005.666504
5657.23    2880.237549    2873.275391
5658.70    3018.703613    3017.641357
5660.17    3000.310059    3007.396729
5661.64    3028.078125    3032.167725
5663.11    2912.186035    2919.229736
5664.58    2957.326660    2958.525391
5666.05    3030.277832    3025.249023
5667.52    2829.387451    2839.794189
5668.99    2889.888916    2895.234131
5670.46    2795.597168    2790.711182
5671.93    2817.782715    2816.453613
5673.40    2920.077148    2924.037354
5674.87    2806.150391    2793.344482
5676.34    2796.882812    2803.377686
5677.81    2838.695313    2844.198975
5679.28    2900.538330    2898.378906
5680.75    2843.729736    2847.246338
5682.22    2780.550537    2779.588623
5683.69    2834.577148    2836.269531
5685.16    2812.441406    2814.143555
5686.63    2975.243896    2958.640137
5688.10    3081.122559    3083.611572
5689.57    2903.188721    2893.896484
5691.04    2914.391113    2908.576660
5692.51    3073.645996    3082.834229
5693.98    2989.078369    2978.814697
5695.45    3006.262207    2996.157471
5696.92    3101.864746    3098.934082
5698.39    3101.795898    3097.478760
5699.86    2974.515625    2977.927490
5701.33    2850.324707    2848.199463
5702.80    2896.634521    2896.643555
5704.27    2877.063965    2874.996338
5705.74    2812.699463    2794.503662
5707.21    2909.254150    2902.504883
5708.68    2940.712158    2941.437256
5710.15    2960.687256    2961.364502
5711.62    2942.664795    2951.817871
5713.09    2998.556885    3012.920410
5714.56    2961.020508    2965.541260
5716.03    2869.863281    2861.947754
5717.50    2865.679687    2862.287598
5718.97    2986.625977    2984.653320
5720.44    2959.384033    2950.461426
5721.91    2906.145264    2900.162109
5723.38    3047.659668    3041.852539
5724.85    2945.332764    2941.956787
5726.32    2850.629150    2849.531250
5727.79    2942.473877    2935.136963
5729.26    3015.826416    3011.699219
5730.73    2981.641846    2982.319336
5732.20    2926.708008    2922.184570
5733.67    3012.398682    3018.560547
5735.14    2936.062012    2930.937744
5736.61    2953.482666    2959.006836
5738.08    3031.073730    3035.470703
5739.55    2953.311523    2949.388428
5741.02    2903.020508    2912.273438
5742.49    2917.333496    2914.108887
5743.96    2863.051758    2852.176758
5745.43    2901.629883    2903.145508
5746.90    2982.415771    2989.357910
5748.37    2915.555664    2914.614502
5749.85    2932.774170    2935.538330
5751.32    2988.489258    2987.858887
5752.79    3038.069336    3037.217285
5754.26    3053.124023    3057.040039
5755.73    3109.531982    3109.401123
5757.20    3118.714355    3108.308105
5758.67    3105.131348    3105.810303
5760.14    3083.013428    3083.612549
5761.61    3127.523926    3140.739014
5763.08    3061.128174    3067.700684
5764.55    3162.505127    3158.963135
5766.02    3165.829834    3157.428955
5767.49    3034.086182    3019.295410
5768.96    3009.661865    3012.233154
5770.43    3060.294678    3078.953613
5771.90    3041.848633    3040.986328
5773.37    3022.385742    3012.145752
5774.84    2974.381348    2991.300049
5776.31    2963.779053    2962.539551
5777.78    3002.682373    2990.745605
5779.25    3072.858887    3072.397217
5780.72    3012.186523    3014.745361
5782.19    3012.035889    3012.793457
5783.66    3066.054199    3065.139893
5785.13    3070.834229    3073.799316
5786.60    3098.410156    3111.507324
5788.07    2993.249756    2988.918457
5789.54    2877.948242    2875.363770
5791.01    2952.124756    2966.628174
5792.48    2960.310547    2962.552490
5793.95    2858.194336    2863.538086
5795.42    2926.137207    2915.556641
5796.89    2921.576660    2921.254395
5798.36    3001.710205    3006.332520
5799.83    2936.064209    2926.954102
5801.30    3009.544434    3021.910400
5802.77    3103.885254    3108.896973
5804.24    3086.688232    3071.904785
5805.71    3162.377930    3147.209961
5807.18    3205.321045    3202.572510
5808.65    3210.813965    3221.115967
5810.12    3236.219238    3238.432861
5811.59    3228.249756    3226.489746
5813.06    3185.584473    3193.180420
5814.53    3220.991943    3233.541016
5816.00    3191.967041    3188.140625
5817.47    3114.594482    3113.299072
5818.94    3090.524902    3067.865967
5820.41    3351.014160    3346.509766
5821.88    3196.514648    3192.993896
5823.35    3253.689697    3257.242432
5824.82    3122.049316    3122.088135
5826.29    3292.782471    3295.462402
5827.76    3217.427734    3186.821045
5829.23    3235.171875    3232.822998
5830.70    3156.845947    3146.517090
5832.17    3157.138672    3158.241943
5833.64    3142.607910    3138.121094
5835.11    3159.284668    3162.587158
5836.58    3172.224854    3164.821289
5838.05    3105.635010    3090.045410
5839.52    3148.657715    3154.791016
5840.99    3104.641602    3058.567627
5842.46    3200.833496    3188.697510
5843.93    3147.833008    3161.760010
5845.40    3126.750000    3135.684570
5846.87    3207.971680    3197.604492
5848.34    3228.874512    3217.315674
5849.81    3161.026855    3159.575928
5851.28    3164.691895    3154.379639
5852.75    3216.932373    3212.354004
5854.22    3197.955566    3201.469238
5855.69    3151.982178    3148.583496
5857.17    3219.679443    3216.659180
5858.64    3139.741699    3142.605469
5860.11    3234.292969    3228.433594
5861.58    3214.916748    3216.119141
5863.05    3158.969727    3160.885742
5864.52    3115.334229    3122.026367
5865.99    3143.414307    3145.662842
5867.46    3180.078613    3187.103271
5868.93    3033.409180    3028.146973
5870.40    2990.807373    2984.026123
5871.87    3090.192871    3080.444336
5873.34    3015.507813    3027.966309
5874.81    3006.200439    3002.437500
5876.28    3005.286865    2994.171143
5877.75    3083.634277    3075.147705
5879.22    3170.161865    3183.297119
5880.69    3167.958740    3162.905518
5882.16    3048.032959    3037.138428
5883.63    3114.612793    3118.876221
5885.10    3068.056641    3056.436523
5886.57    3015.223877    3005.931152
5888.04    3073.560059    3058.741699
5889.51    2992.208252    2941.789551
5890.98    3012.078125    2976.737061
5892.45    3001.081787    2987.110352
5893.92    3000.331543    2984.171143
5895.39    3031.645508    3025.242920
5896.86    3092.448975    3088.571289
5898.33    2940.324219    2924.593506
5899.80    3096.937256    3100.900146
5901.27    3121.309326    3129.761230
5902.74    3151.404541    3137.056396
5904.21    3145.306152    3140.414795
5905.68    3196.273193    3192.617676
5907.15    3097.443848    3101.583740
5908.62    3275.405762    3278.843750
5910.09    3225.561279    3217.169678
5911.56    3244.623779    3235.608154
5913.03    3251.752441    3244.676270
5914.50    3149.929687    3147.464600
5915.97    3191.570557    3196.047119
5917.44    3147.305664    3147.588867
5918.91    3195.617432    3194.251953
5920.38    3158.315186    3153.053467
5921.85    3190.719971    3181.508545
5923.32    3143.173096    3140.356445
5924.79    3188.056885    3192.269043
5926.26    3176.480225    3171.697510
5927.73    3270.498779    3269.749512
5929.20    3190.550781    3176.111328
5930.67    3219.085693    3208.614990
5932.14    3208.755127    3213.852295
5933.61    3183.564941    3178.622803
5935.08    3210.295166    3193.864502
5936.55    3166.065674    3169.247559
5938.02    3070.008545    3064.884033
5939.49    3045.179443    3049.988281
5940.96    3079.827393    3087.456787
5942.43    2959.171631    2964.083252
5943.90    2937.239014    2935.627441
5945.37    2929.430664    2928.402100
5946.84    2998.520508    2999.642822
5948.31    2953.333496    2955.141113
5949.78    2889.385010    2890.310547
5951.25    3147.944336    3160.592773
5952.72    3100.911133    3109.796631
5954.19    3082.616943    3089.992432
5955.66    3225.014404    3225.771729
5957.13    3113.685059    3112.858398
5958.60    3032.920410    3035.094238
5960.07    3132.265381    3129.123535
5961.54    3209.014160    3219.039307
5963.01    3232.920410    3224.742920
5964.49    3167.468262    3157.345947
5965.96    3041.510010    3042.762451
5967.43    3067.130127    3069.531250
5968.90    3048.612793    3060.809082
5970.37    2939.702393    2940.792725
5971.84    2891.303711    2899.260742
5973.31    2786.944092    2804.046631
5974.78    2722.224121    2727.972656
5976.25    2608.286133    2622.889160
5977.72    2487.572754    2510.568848
5979.19    2423.610107    2430.561523
5980.66    2326.076172    2334.800049
5982.13    2339.054199    2353.517578
5983.60    2478.643799    2489.587402
5985.07    2531.693359    2529.224609
5986.54    2552.271729    2553.684814
5988.01    2678.965088    2691.440674
5989.48    2822.095703    2825.190430
5990.95    2890.831055    2888.370605
5992.42    2934.243164    2944.013184
5993.89    2931.845947    2937.063721
5995.36    2953.718262    2946.950928
5996.83    3057.921143    3060.981201
5998.30    3110.313965    3115.140869
5999.77    3076.872559    3029.124268
6001.24    3083.416504    3083.420654
6002.71    3164.578125    3178.033691
6004.18    3134.418701    3130.872070
6005.65    3166.348633    3156.766113
6007.12    3058.612061    3062.473633
6008.59    3021.196289    3026.230957
6010.06    3153.044678    3152.378174
6011.53    3176.662354    3185.764648
6013.00    3113.366455    3111.268066
6014.47    3081.668457    3079.991211
6015.94    3151.739746    3150.755859
6017.41    3160.029785    3147.981201
6018.88    3130.789551    3129.123535
6020.35    3186.851562    3177.563721
6021.82    3170.865967    3173.790039
6023.29    3138.896973    3132.285156
6024.76    3175.570557    3183.222412
6026.23    3198.141357    3200.282715
6027.70    3214.051514    3208.001709
6029.17    3263.543457    3260.618652
6030.64    3195.767090    3188.215088
6032.11    3242.973877    3229.234131
6033.58    3245.113281    3247.243164
6035.05    3102.878418    3097.321045
6036.52    3209.397461    3210.215088
6037.99    3153.182617    3149.571533
6039.46    3155.242432    3146.257324
6040.93    3259.136963    3253.716064
6042.40    3169.910156    3170.218262
6043.87    3200.544189    3189.020020
6045.34    3231.285889    3221.572266
6046.81    3194.366699    3200.574951
6048.28    3164.648437    3157.504883
6049.75    3127.955078    3135.554199
6051.22    3141.197510    3153.528809
6052.69    3248.371094    3224.575195
6054.16    3252.300781    3251.498047
6055.63    3338.168701    3345.997070
6057.10    3356.455566    3350.563721
6058.57    3297.616699    3302.304932
6060.04    3256.103271    3256.701172
6061.51    3299.621338    3293.321777
6062.98    3296.640869    3286.973145
6064.45    3307.400879    3311.335693
6065.92    3328.028564    3324.370361
6067.39    3216.963135    3217.657227
6068.86    3151.218018    3149.783691
6070.33    3280.546631    3273.785645
6071.81    3247.138184    3252.673828
6073.28    3141.250977    3132.023926
6074.75    3307.848633    3307.139648
6076.22    3196.956299    3196.832520
6077.69    3184.834229    3194.214111
6079.16    3165.297363    3172.009033
6080.63    3224.206055    3237.203125
6082.10    3268.600830    3269.415039
6083.57    3312.881592    3318.424561
6085.04    3296.458496    3288.250732
6086.51    3252.541260    3249.828369
6087.98    3327.864258    3322.165771
6089.45    3264.103760    3275.933350
6090.92    3305.385254    3313.170654
6092.39    3306.604980    3310.239990
6093.86    3209.912842    3201.459717
6095.33    3224.936279    3217.467041
6096.80    3220.911621    3211.109375
6098.27    3236.805176    3237.820312
6099.74    3223.551758    3216.404785
6101.21    3266.275146    3266.166748
6102.68    3259.278809    3262.258789
6104.15    3276.778320    3269.408447
6105.62    3142.995850    3134.142822
6107.09    3335.428955    3338.050537
6108.56    3102.455811    3096.458496
6110.03    3226.558838    3247.552002
6111.50    3176.734131    3175.417236
6112.97    3167.230469    3166.304688
6114.44    3312.087158    3303.411865
6115.91    3293.355225    3306.362305
6117.38    3323.640381    3325.427002
6118.85    3361.803955    3351.053467
6120.32    3335.761475    3323.774902
6121.79    3365.158203    3367.962158
6123.26    3388.872803    3379.321533
6124.73    3425.551514    3415.341553
6126.20    3383.647705    3381.805664
6127.67    3319.624512    3331.401123
6129.14    3530.058105    3545.477051
6130.61    3413.782471    3409.259033
6132.08    3466.059326    3461.946533
6133.55    3558.052002    3553.781494
6135.02    3430.241943    3431.958984
6136.49    3512.859619    3505.216797
6137.96    3478.925537    3472.796143
6139.43    3480.427979    3492.987793
6140.90    3501.562256    3494.253174
6142.37    3506.101318    3498.565186
6143.84    3372.564453    3367.797119
6145.31    3487.381348    3493.679932
6146.78    3398.297119    3404.104980
6148.25    3379.767090    3394.068848
6149.72    3476.498535    3466.675781
6151.19    3401.768066    3394.000244
6152.66    3381.224121    3394.016357
6154.13    3478.191650    3502.953125
6155.60    3442.346924    3450.046143
6157.07    3408.031982    3415.463623
6158.54    3444.870361    3438.408936
6160.01    3622.031006    3618.722656
6161.48    3494.837402    3487.528320
6162.95    3460.926025    3460.674805
6164.42    3468.975586    3480.381836
6165.89    3473.693359    3467.716309
6167.36    3444.630371    3447.510498
6168.83    3487.464844    3501.930176
6170.30    3441.727051    3440.922363
6171.77    3378.660645    3379.717285
6173.24    3434.010254    3422.348145
6174.71    3392.411133    3388.799805
6176.18    3355.647949    3365.413574
6177.65    3255.348389    3257.688965
6179.13    3332.731689    3330.142090
6180.60    3466.129883    3464.303711
6182.07    3371.230469    3365.627197
6183.54    3347.705566    3348.972656
6185.01    3399.773926    3393.943359
6186.48    3392.495361    3380.743652
6187.95    3455.165039    3458.622803
6189.42    3450.339111    3454.791992
6190.89    3354.940674    3356.189209
6192.36    3395.301514    3400.292480
6193.83    3341.982910    3331.526855
6195.30    3420.552734    3417.402588
6196.77    3468.451660    3464.200684
6198.24    3394.452148    3391.802979
6199.71    3421.250732    3418.601318
6201.18    3413.318604    3405.903809
6202.65    3462.558350    3470.331543
6204.12    3489.389893    3489.646240
6205.59    3428.719238    3428.745361
6207.06    3482.551025    3493.797119
6208.53    3556.439453    3549.312500
6210.00    3447.805420    3441.240967
6211.47    3471.320557    3466.708740
6212.94    3512.551025    3496.952637
6214.41    3366.395020    3369.345947
6215.88    3333.960937    3334.651611
6217.35    3414.158447    3407.575439
6218.82    3495.543457    3489.314941
6220.29    3501.889893    3504.488281
6221.76    3473.260254    3475.295166
6223.23    3388.183838    3383.715332
6224.70    3384.012939    3371.844727
6226.17    3508.664307    3496.106689
6227.64    3446.374268    3435.253662
6229.11    3459.512451    3445.741943
6230.58    3453.784424    3442.892822
6232.05    3415.926025    3410.764648
6233.52    3488.661865    3493.673828
6234.99    3474.839600    3474.210937
6236.46    3409.682617    3414.234375
6237.93    3495.575684    3503.919922
6239.40    3416.899170    3421.717285
6240.87    3401.124268    3400.837158
6242.34    3536.121338    3538.839355
6243.81    3489.611328    3490.003174
6245.28    3412.176270    3412.121338
6246.75    3369.620117    3367.329346
6248.22    3384.933105    3391.763916
6249.69    3356.087891    3352.754883
6251.16    3252.832520    3254.373291
6252.63    3285.557617    3285.510254
6254.10    3254.999268    3248.213623
6255.57    3222.711426    3213.799805
6257.04    3148.101562    3152.918457
6258.51    3204.044678    3191.820801
6259.98    3156.197266    3135.542725
6261.45    3238.330078    3231.911621
6262.92    3382.566406    3382.533691
6264.39    3301.722168    3302.654297
6265.86    3314.876465    3307.238281
6267.33    3340.257324    3330.447754
6268.80    3293.971436    3282.316650
6270.27    3314.714355    3307.881348
6271.74    3287.547607    3281.650146
6273.21    3396.895996    3402.852539
6274.68    3308.792969    3295.919922
6276.15    3273.065674    3269.758545
6277.62    3240.022217    3242.614014
6279.09    3144.505371    3128.328125
6280.56    3281.086182    3272.604004
6282.03    3242.261475    3243.635742
6283.50    3205.356445    3197.903564
6284.97    3270.604248    3251.714355
6286.45    3317.429687    3321.049805
6287.92    3225.220459    3225.100342
6289.39    3364.589355    3359.575439
6290.86    3263.031494    3274.535889
6292.33    3310.541260    3294.053711
6293.80    3392.280518    3385.064453
6295.27    3431.906494    3415.624023
6296.74    3425.511719    3436.457031
6298.21    3559.900146    3562.824951
6299.68    3438.180908    3442.387207
6301.15    3414.375732    3421.999268
6302.62    3312.457031    3310.587891
6304.09    3272.035400    3281.279541
6305.56    3386.373779    3378.125732
6307.03    3321.238770    3325.172607
6308.50    3311.615967    3296.849609
6309.97    3200.376709    3185.937256
6311.44    3248.504639    3247.143311
6312.91    3204.261230    3211.124268
6314.38    3226.059326    3234.461426
6315.85    3274.675537    3278.430664
6317.32    3192.164795    3192.482910
6318.79    3321.664551    3325.402100
6320.26    3292.203125    3304.456299
6321.73    3227.453369    3218.808838
6323.20    3236.413818    3230.289551
6324.67    3255.259766    3255.779053
6326.14    3339.689209    3351.444336
6327.61    3407.195801    3423.460449
6329.08    3251.678955    3263.156494
6330.55    3328.415527    3334.411377
6332.02    3356.906006    3352.376465
6333.49    3378.911865    3370.356201
6334.96    3195.680908    3201.370361
6336.43    3230.156738    3236.186768
6337.90    3371.170166    3366.808838
6339.37    3238.622559    3243.073486
6340.84    3325.586426    3323.978760
6342.31    3250.453857    3244.260498
6343.78    3311.453857    3320.458252
6345.25    3262.252441    3274.259033
6346.72    3188.414307    3191.095215
6348.19    3398.132813    3393.620361
6349.66    3311.396240    3310.985352
6351.13    3255.944580    3246.385010
6352.60    3307.893799    3303.689941
6354.07    3347.853027    3346.156494
6355.54    3292.328613    3281.624512
6357.01    3342.349121    3332.789062
6358.48    3374.356445    3380.924561
6359.95    3268.100586    3260.010986
6361.42    3463.703857    3471.562012
6362.89    3435.189941    3438.262451
6364.36    3368.671387    3365.234131
6365.83    3526.498779    3531.623779
6367.30    3516.881348    3511.922119
6368.77    3568.339600    3556.567139
6370.24    3507.920166    3509.741943
6371.71    3462.818359    3465.804688
6373.18    3537.342773    3540.832764
6374.65    3532.504639    3534.930176
6376.12    3567.431885    3561.662354
6377.59    3503.562988    3503.700928
6379.06    3652.763916    3652.831543
6380.53    3630.994385    3613.849121
6382.00    3490.218750    3482.228516
6383.47    3586.911133    3591.521240
6384.94    3579.544434    3568.364502
6386.41    3576.660889    3588.805664
6387.88    3582.116211    3604.749512
6389.35    3504.350098    3513.719727
6390.82    3542.268799    3537.858398
6392.29    3475.501465    3461.661133
6393.77    3475.761475    3473.240723
6395.24    3567.653564    3571.873535
6396.71    3567.956787    3558.067383
6398.18    3528.792480    3522.327637
6399.65    3547.639893    3553.916748
6401.12    3488.132568    3479.938477
6402.59    3595.272949    3585.329102
6404.06    3644.286865    3636.875977
6405.53    3527.826660    3533.766602
6407.00    3439.479492    3434.545410
6408.47    3606.037109    3602.404297
6409.94    3606.891602    3600.677734
6411.41    3488.188232    3481.883057
6412.88    3515.718018    3517.176270
6414.35    3480.546387    3480.531982
6415.82    3533.755859    3535.697998
6417.29    3485.987061    3490.133789
6418.76    3545.956055    3551.770752
6420.23    3711.455322    3706.865967
6421.70    3663.673828    3669.533203
6423.17    3673.366211    3683.685547
6424.64    3714.752930    3713.139893
6426.11    3663.989014    3663.286377
6427.58    3691.106201    3690.379395
6429.05    3684.796875    3684.003662
6430.52    3593.404785    3594.614014
6431.99    3623.551270    3632.813232
6433.46    3668.618408    3676.012695
6434.93    3631.305908    3625.086426
6436.40    3556.684326    3560.537842
6437.87    3538.303467    3537.469238
6439.34    3575.723389    3564.975342
6440.81    3620.933594    3629.842041
6442.28    3668.261230    3675.954102
6443.75    3644.901367    3652.012451
6445.22    3600.967041    3596.334961
6446.69    3630.696533    3621.261719
6448.16    3575.043701    3575.666748
6449.63    3623.202637    3620.857910
6451.10    3684.745850    3693.066162
6452.57    3545.614990    3547.013916
6454.04    3554.831787    3555.283936
6455.51    3468.578857    3480.050293
6456.98    3344.455322    3340.442871
6458.45    3395.766357    3391.113037
6459.92    3578.942627    3582.569092
6461.39    3596.829590    3578.952881
6462.86    3596.531006    3589.995850
6464.33    3592.002197    3589.128174
6465.80    3695.951904    3690.544678
6467.27    3704.263428    3711.285156
6468.74    3710.109619    3709.325684
6470.21    3649.540039    3647.520508
6471.68    3734.756836    3735.943359
6473.15    3710.649658    3716.847168
6474.62    3594.851807    3584.584473
6476.09    3654.918945    3658.213867
6477.56    3682.223877    3697.493408
6479.03    3758.880127    3760.582031
6480.50    3753.664795    3752.152344
6481.97    3693.610352    3692.606445
6483.44    3714.187256    3719.936768
6484.91    3606.247314    3614.006592
6486.38    3655.694824    3656.150146
6487.85    3671.568359    3632.168945
6489.32    3610.531738    3602.896973
6490.79    3529.056152    3531.824707
6492.26    3739.022949    3739.831299
6493.73    3643.034912    3634.636475
6495.20    3684.761719    3685.265625
6496.67    3612.759521    3630.257813
6498.14    3645.263184    3650.514160
6499.61    3763.830078    3765.879150
6501.09    3732.586182    3729.352539
6502.56    3980.984131    3978.279785
6504.03    3773.348145    3771.219238
6505.50    3651.302002    3654.151367
6506.97    3801.731689    3785.878662
6508.44    3759.328369    3767.799805
6509.91    3649.446533    3665.145508
6511.38    3774.859131    3771.349609
6512.85    3606.212891    3604.731201
6514.32    3606.281982    3599.562744
6515.79    3502.575439    3493.363281
6517.26    3583.572021    3577.031982
6518.73    3681.746338    3684.884766
6520.20    3682.392090    3679.777344
6521.67    3704.773682    3696.181885
6523.14    3733.371338    3753.439697
6524.61    3722.293213    3725.982422
6526.08    3764.297607    3756.850098
6527.55    3741.592041    3733.635010
6529.02    3620.866943    3608.338867
6530.49    3814.063965    3798.289551
6531.96    3745.139404    3750.188721
6533.43    3717.405518    3715.338867
6534.90    3844.307617    3839.697021
6536.37    3830.602783    3820.898193
6537.84    3699.685791    3689.215820
6539.31    3812.186035    3805.755127
6540.78    3776.298340    3774.438232
6542.25    3804.712891    3807.553955
6543.72    3792.709717    3794.920410
6545.19    3771.858154    3776.511475
6546.66    3840.259766    3841.878174
6548.13    3713.959473    3719.834961
6549.60    3706.824463    3696.789795
6551.07    3735.568359    3742.667969
6552.54    3819.849609    3843.452881
6554.01    3796.106934    3795.596436
6555.48    3725.903076    3709.765381
6556.95    3813.078125    3815.651367
6558.42    3796.983887    3807.854980
6559.89    3849.101074    3845.702148
6561.36    3894.327148    3889.889893
6562.83    3741.382080    3740.296875
6564.30    3933.639160    3925.127197
6565.77    3841.851562    3832.104736
6567.24    3902.551514    3914.057373
6568.71    3816.346191    3807.802979
6570.18    4001.826904    4000.328613
6571.65    4020.626953    4030.722900
6573.12    3886.285645    3889.782471
6574.59    4030.846924    4025.041748
6576.06    3864.302734    3872.793213
6577.53    3855.691650    3867.089600
6579.00    3890.860840    3884.015137
6580.47    3916.339355    3916.270264
6581.94    3756.627930    3751.446289
6583.41    3911.812256    3911.251465
6584.88    3916.211182    3917.893799
6586.35    3644.152344    3645.976807
6587.82    3736.346680    3734.304443
6589.29    3739.260986    3739.316650
6590.76    3761.179443    3766.014160
6592.23    3624.457520    3615.898682
6593.70    3602.276855    3598.715576
6595.17    3633.232666    3627.877441
6596.64    3707.856201    3700.392822
6598.11    3730.339111    3717.658203
6599.58    3714.636475    3713.916260
6601.05    3758.250977    3764.330078
6602.52    3808.749756    3812.084717
6603.99    3905.062012    3906.580322
6605.46    3903.795898    3905.080322
6606.93    3810.938232    3817.394775
6608.41    3913.758057    3926.205566
6609.88    3874.419189    3879.977051
6611.35    3932.002686    3931.619385
6612.82    3917.206543    3920.548828
6614.29    3920.018555    3919.690674
6615.76    3982.282959    3979.837402
6617.23    3963.652100    3959.731201
6618.70    3945.020508    3926.814941
6620.17    3947.682129    3946.384521
6621.64    3844.659180    3849.039062
6623.11    3958.511475    3952.855957
6624.58    4078.324219    4070.869385
6626.05    3968.473633    3965.158203
6627.52    3891.509766    3892.225586
6628.99    4022.687744    4023.807617
6630.46    3960.993408    3960.689209
6631.93    3908.669678    3908.370605
6633.40    3918.848633    3915.843262
6634.87    3963.544678    3955.092285
6636.34    3980.771729    3970.112061
6637.81    4003.502930    3997.594238
6639.28    3960.757812    3951.714844
6640.75    4030.427979    4029.330566
6642.22    4072.090088    4065.165039
6643.69    3997.499023    3989.287842
6645.16    4029.157471    4032.221436
6646.63    3977.259033    3984.112305
6648.10    3922.282471    3924.372070
6649.57    3954.394287    3948.940674
6651.04    3945.578369    3948.476318
6652.51    3865.794189    3862.282471
6653.98    3874.155029    3876.456543
6655.45    3832.779785    3837.366455
6656.92    3801.524414    3798.531250
6658.39    3794.002441    3832.050293
6659.86    3731.048096    3849.753174
6661.33    3762.617432    3851.459473
6662.80    3659.515137    3721.950439
6664.27    3754.621338    3859.022461
6665.74    3833.941162    3848.548096
6667.21    3679.125732    3674.293457
6668.68    3791.272949    3803.695313
6670.15    3654.510010    3657.454590
6671.62    3722.234619    3715.800537
6673.09    3912.464111    3909.354492
6674.56    3891.176514    3886.084717
6676.03    4102.991211    4106.161621
6677.50    4164.722656    4164.139648
6678.97    4156.652832    4162.311523
6680.44    4333.796875    4346.872070
6681.91    4289.340820    4293.754883
6683.38    4397.778320    4408.239746
6684.85    4341.910645    4361.328613
6686.32    4130.239746    4151.552734
6687.79    4033.991943    4026.836914
6689.26    4122.959961    4117.482910
6690.73    4069.233154    4064.768799
6692.20    3899.560059    3887.440918
6693.67    3949.154297    3952.558105
6695.14    3937.329346    3951.122803
6696.61    3879.717041    3882.555908
6698.08    3865.608887    3869.173828
6699.55    3931.135010    3938.021973
6701.02    3941.360107    3939.102295
6702.49    4030.285156    4023.047119
6703.96    4051.822754    4049.724365
6705.43    3928.543213    3918.030518
6706.90    3999.200684    3988.104492
6708.37    4037.853027    4035.545166
6709.84    4013.816650    4006.683594
6711.31    3992.120605    4006.261963
6712.78    4020.096191    4054.333252
6714.25    3930.390137    3942.055908
6715.73    4029.757324    4032.614990
6717.20    4053.760498    4041.678711
6718.67    3956.507812    3950.233398
6720.14    3969.319824    3983.529785
6721.61    3946.519531    3950.030029
6723.08    4065.099854    4054.802979
6724.55    3960.986084    3959.515137
6726.02    4068.926025    4059.844727
6727.49    3922.107178    3911.971191
6728.96    3943.746582    3942.372559
6730.43    3848.337158    3837.403320
6731.90    3907.308594    3907.702148
6733.37    3934.807861    3930.517822
6734.84    3805.894287    3797.621826
6736.31    3847.155273    3848.675781
6737.78    3948.814209    3944.035889
6739.25    3880.558594    3879.763916
6740.72    3843.425049    3845.583252
6742.19    3888.597656    3885.526855
6743.66    3830.127686    3827.109619
6745.13    3978.966797    3979.933594
6746.60    3939.722412    3923.384033
6748.07    3928.317627    3922.891602
6749.54    3893.677734    3900.331787
6751.01    3889.472412    3887.213379
6752.48    3917.699707    3924.192627
6753.95    4014.100098    4009.939941
6755.42    3867.920166    3873.518311
6756.89    3936.262939    3939.782227
6758.36    3894.850586    3897.000244
6759.83    3932.361816    3942.068115
6761.30    3829.496826    3830.947510
6762.77    3740.108154    3745.200439
6764.24    3778.496826    3777.941650
6765.71    3942.262939    3951.802734
6767.18    3839.877686    3822.611816
6768.65    3896.533936    3897.892578
6770.12    3753.561523    3758.946289
6771.59    3904.314941    3914.589600
6773.06    3863.048828    3858.906982
6774.53    3896.919189    3903.174561
6776.00    3782.235840    3784.244629
6777.47    3772.904297    3779.369873
6778.94    3725.193848    3723.307617
6780.41    3857.044434    3860.313232
6781.88    3808.313232    3805.631836
6783.35    3715.750488    3717.775391
6784.82    3885.466064    3878.213623
6786.29    3890.028320    3887.176025
6787.76    3757.142090    3744.283691
6789.23    3771.337646    3766.181396
6790.70    3703.035400    3701.969971
6792.17    3867.458740    3861.912598
6793.64    3829.361084    3812.076172
6795.11    3882.794922    3890.673584
6796.58    3847.316406    3839.116943
6798.05    3813.375977    3814.874023
6799.52    3780.818604    3781.434570
6800.99    3828.600586    3823.893799
6802.46    3734.354980    3738.941895
6803.93    3773.237061    3771.380371
6805.40    3733.274170    3739.223145
6806.87    3821.028564    3830.634277
6808.34    3766.570068    3764.656006
6809.81    3824.377197    3819.731689
6811.28    3879.627930    3886.212402
6812.75    3889.427002    3887.143799
6814.22    3975.014404    3975.083252
6815.69    3832.921387    3836.523193
6817.16    3895.284668    3907.854736
6818.63    3788.239258    3796.461914
6820.10    3913.052734    3930.079590
6821.57    3746.245850    3747.265137
6823.05    3880.384766    3888.978516
6824.52    3846.183838    3844.461182
6825.99    3779.745117    3780.407959
6827.46    3824.047363    3842.078613
6828.93    3787.535645    3799.562744
6830.40    3843.078857    3845.098633
6831.87    3935.696045    3943.946045
6833.34    3915.591797    3935.881592
6834.81    3920.471436    3931.827637
6836.28    3942.150635    3949.163330
6837.75    3859.764160    3854.345459
6839.22    3727.766846    3736.900146
6840.69    3690.434326    3687.144287
6842.16    3787.217041    3784.518555
6843.63    3826.576660    3831.332520
6845.10    3647.013916    3651.843506
6846.57    3486.847656    3489.881836
6848.04    3598.368652    3600.417725
6849.51    3719.459473    3718.150146
6850.98    3686.010254    3681.126221
6852.45    3667.361572    3661.084717
6853.92    3648.759521    3648.296631
6855.39    3677.958740    3678.531738
6856.86    3737.032227    3729.516846
6858.33    3729.202393    3719.069580
6859.80    3665.088867    3665.216309
6861.27    3661.504150    3672.420898
6862.74    3765.169922    3774.463135
6864.21    3626.527832    3646.731934
6865.68    3314.063477    3296.198242
6867.15    3097.399170    3099.201660
6868.62    2908.515381    2921.180664
6870.09    2665.654297    2663.944092
6871.56    2727.303955    2727.528320
6873.03    2791.674805    2794.760254
6874.50    2856.557373    2864.165771
6875.97    3068.054199    3073.322021
6877.44    3171.134277    3168.164062
6878.91    3265.701904    3255.112793
6880.38    3392.393311    3393.179443
6881.85    3516.061035    3519.481934
6883.32    3567.765625    3580.294434
6884.79    3379.111084    3377.474609
6886.26    3254.859863    3235.901611
6887.73    3185.170410    3173.914307
6889.20    3227.807861    3213.636475
6890.67    3183.577881    3175.786865
6892.14    3190.681396    3202.229736
6893.61    3233.841309    3235.189697
6895.08    3297.797852    3298.861328
6896.55    3336.530273    3342.534180
6898.02    3279.594482    3284.112793
6899.49    3241.368164    3255.822021
6900.96    3304.671875    3311.528320
6902.43    3340.790771    3347.791748
6903.90    3401.320068    3420.360352
6905.37    3398.467041    3395.772217
6906.84    3352.588135    3352.760254
6908.31    3420.957275    3421.826904
6909.78    3466.773193    3471.568359
6911.25    3489.014648    3492.593506
6912.72    3483.518799    3482.979492
6914.19    3490.964600    3497.514404
6915.66    3565.718506    3576.951660
6917.13    3518.229492    3529.770264
6918.60    3515.252930    3502.164551
6920.07    3558.212402    3562.597900
6921.54    3591.287598    3595.085205
6923.01    3578.543213    3562.535156
6924.48    3657.057617    3645.525635
6925.95    3587.183350    3593.484619
6927.42    3485.405029    3498.385254
6928.89    3517.095703    3513.267334
6930.37    3567.082275    3564.729980
6931.84    3480.382813    3487.437988
6933.31    3496.243408    3488.376709
6934.78    3584.013916    3578.611572
6936.25    3322.084473    3327.987061
6937.72    3339.385986    3350.163330
6939.19    3404.355469    3409.976318
6940.66    3303.482910    3299.297363
6942.13    3299.960693    3304.936035
6943.60    3456.234375    3447.002686
6945.07    3454.772705    3451.908203
6946.54    3407.657715    3403.621338
6948.01    3434.140869    3422.427490
6949.48    3457.287842    3436.595215
6950.95    3493.550781    3489.944824
6952.42    3516.538818    3531.384033
6953.89    3550.611328    3544.157959
6955.36    3491.623779    3496.248535
6956.83    3415.786865    3427.634033
6958.30    3442.970215    3440.390381
6959.77    3474.975098    3470.799805
6961.24    3425.024658    3436.033691
6962.71    3554.091309    3555.414063
6964.18    3563.791260    3563.097656
6965.65    3613.453613    3625.173096
6967.12    3731.740234    3744.651123
6968.59    3662.828613    3667.862793
6970.06    3613.135498    3604.688965
6971.53    3678.510498    3671.280762
6973.00    3731.108643    3731.860596
6974.47    3700.113770    3703.648438
6975.94    3778.227051    3783.145264
6977.41    3684.664063    3687.094482
6978.88    3643.584961    3640.540283
6980.35    3650.921387    3652.040039
6981.82    3631.772217    3639.465576
6983.29    3664.910400    3668.661133
6984.76    3473.161377    3466.768555
6986.23    3549.011963    3552.718018
6987.70    3496.479004    3499.063232
6989.17    3437.343506    3443.316895
6990.64    3519.224365    3519.050537
6992.11    3534.165283    3520.564941
6993.58    3579.202637    3578.366455
6995.05    3648.141602    3643.449219
6996.52    3609.947021    3606.800781
6997.99    3640.045410    3635.666016
6999.46    3594.506348    3590.995850
7000.93    3591.946777    3587.790039
7002.40    3671.321777    3663.509766
7003.87    3637.648438    3641.778320
7005.34    3574.027832    3584.309814
7006.81    3666.031738    3659.507813
7008.28    3733.598389    3730.256104
7009.75    3605.988281    3606.715332
7011.22    3674.061035    3682.978271
7012.69    3542.623047    3545.503906
7014.16    3688.299805    3683.122070
7015.63    3579.110352    3561.985596
7017.10    3639.359375    3640.225342
7018.57    3798.415283    3787.590576
7020.04    3552.807373    3546.155518
7021.51    3638.664795    3630.838867
7022.98    3621.045654    3611.663330
7024.45    3478.775879    3488.942383
7025.92    3695.203369    3683.152100
7027.39    3638.379150    3630.633301
7028.86    3655.788086    3664.854492
7030.33    3624.109863    3624.614502
7031.80    3671.285156    3665.407471
7033.27    3900.684326    3908.976074
7034.74    3779.477783    3780.867432
7036.21    3675.036133    3669.286133
7037.69    3739.801758    3744.246582
7039.16    3694.972900    3686.554932
7040.63    3615.810059    3605.467773
7042.10    3684.757324    3678.041016
7043.57    3653.187988    3657.843750
7045.04    3720.523926    3732.132080
7046.51    3690.291992    3686.562744
7047.98    3870.445068    3873.274170
7049.45    3670.691162    3659.682129
7050.92    3653.433350    3647.080322
7052.39    3653.415771    3655.696045
7053.86    3635.852783    3628.055664
7055.33    3664.105469    3670.995117
7056.80    3700.624512    3697.312988
7058.27    3631.638916    3628.598145
7059.74    3694.853760    3695.083740
7061.21    3714.892334    3724.064453
7062.68    3668.985107    3676.965576
7064.15    3648.888916    3648.732666
7065.62    3712.858398    3718.421875
7067.09    3775.732666    3773.780029
7068.56    3919.566406    3921.526611
7070.03    3915.835693    3920.523193
7071.50    3785.899414    3779.656738
7072.97    3799.455078    3808.103271
7074.44    3720.710205    3728.905273
7075.91    3727.079102    3721.467529
7077.38    3635.943359    3635.837646
7078.85    3685.749023    3681.731201
7080.32    3766.464600    3773.887451
7081.79    3647.283447    3646.653564
7083.26    3915.655273    3924.530273
7084.73    3758.871826    3753.298584
7086.20    3751.040283    3758.756348
7087.67    3733.902832    3734.247070
7089.14    3694.535889    3708.187500
7090.61    3774.888428    3774.520508
7092.08    3795.005615    3786.723145
7093.55    3792.642578    3785.057129
7095.02    3774.130371    3775.916992
7096.49    3812.343506    3818.528809
7097.96    3779.478516    3790.434326
7099.43    3834.335693    3829.021240
7100.90    3803.229004    3804.726318
7102.37    3881.455322    3880.246094
7103.84    3838.230957    3830.798096
7105.31    3815.639404    3810.415283
7106.78    3769.049316    3753.070313
7108.25    3701.014160    3712.409180
7109.72    3763.301758    3760.492676
7111.19    3634.174316    3635.705811
7112.66    3718.557373    3719.345459
7114.13    3816.293701    3824.812988
7115.60    3786.208008    3775.656494
7117.07    3875.836426    3878.379639
7118.54    3752.122314    3760.110596
7120.01    3634.386719    3633.238037
7121.48    3742.613281    3744.409424
7122.95    3912.464844    3909.966064
7124.42    3920.431641    3933.136963
7125.89    3750.942627    3747.541260
7127.36    3727.723145    3729.925049
7128.83    3880.198730    3875.567383
7130.30    3730.214355    3726.365723
7131.77    3844.646973    3846.134766
7133.24    3857.298828    3855.752197
7134.71    3836.397461    3831.819824
7136.18    3773.024414    3761.547607
7137.65    3876.727051    3861.341064
7139.12    3947.093018    3961.625732
7140.59    3857.844971    3860.408447
7142.06    3870.511719    3863.355957
7143.53    3960.302490    3964.178711
7145.01    3876.929687    3874.631592
7146.48    3883.279785    3881.839355
7147.95    3877.341553    3882.417969
7149.42    3842.476562    3833.951660
7150.89    3908.337158    3901.987061
7152.36    3921.070801    3925.607666
7153.83    3918.190430    3924.437500
7155.30    3905.444580    3898.524414
7156.77    3776.903320    3768.285645
7158.24    3770.904297    3784.909912
7159.71    3758.667725    3752.301758
7161.18    3707.143066    3711.091064
7162.65    3585.682617    3593.498779
7164.12    3441.499268    3446.067627
7165.59    3327.076416    3320.967773
7167.06    3167.022461    3153.667236
7168.53    3085.187744    3074.301025
7170.00    3116.939941    3133.767822
7171.47    2974.556396    2984.604736
7172.94    2929.771240    2936.102783
7174.41    2904.791260    2910.640137
7175.88    2878.112793    2874.539551
7177.35    2909.962891    2912.653076
7178.82    2836.780518    2845.412354
7180.29    3078.635498    3081.563232
7181.76    3089.484619    3101.442627
7183.23    2995.637451    2990.687744
7184.70    2856.744873    2857.120361
7186.17    2673.823242    2667.795410
7187.64    2928.729980    2930.398926
7189.11    2945.434570    2954.385742
7190.58    2763.640625    2763.156982
7192.05    2815.700439    2824.919434
7193.52    2870.362305    2878.491699
7194.99    2778.428223    2781.069824
7196.46    2923.000488    2914.879639
7197.93    2893.881104    2896.302246
7199.40    2679.491943    2688.013916
7200.87    2667.392090    2673.327637
7202.34    2688.322021    2686.886230
7203.81    2778.161377    2774.406250
7205.28    2938.687256    2943.136230
7206.75    2969.320801    2971.511963
7208.22    3072.138428    3070.423584
7209.69    3181.963379    3192.106689
7211.16    3209.606445    3214.301270
7212.63    3362.055420    3368.695801
7214.10    3396.321533    3396.930908
7215.57    3390.385498    3393.025635
7217.04    3359.818115    3363.734375
7218.51    3207.153076    3197.398193
7219.98    3361.043457    3358.327881
7221.45    3330.722412    3326.548096
7222.92    3229.822754    3232.367676
7224.39    3217.487549    3220.932617
7225.86    3147.840332    3150.248779
7227.33    3255.269531    3262.828613
7228.80    3317.794434    3326.975098
7230.27    3192.795898    3200.519043
7231.74    2982.764648    2989.294678
7233.21    2833.679443    2837.154785
7234.68    2779.667480    2809.483643
7236.15    2914.948730    2943.084717
7237.62    2979.719238    2995.560303
7239.09    2975.917969    2994.288086
7240.56    2994.269775    3014.217285
7242.03    2835.776367    2845.152588
7243.50    2864.226074    2847.001709
7244.97    2956.420410    2981.175293
7246.44    2919.654785    2921.662598
7247.91    2880.039551    2855.673340
7249.38    2937.782227    2936.755859
7250.85    2904.259766    2902.985352
7252.32    2680.990723    2666.760986
7253.80    2746.641846    2740.534668
7255.27    2846.785400    2844.538330
7256.74    2929.819092    2926.579834
7258.21    3107.762207    3105.530762
7259.68    3097.834717    3088.189453
7261.15    3083.240234    3090.027100
7262.62    2942.768311    2932.593994
7264.09    2930.161621    2915.554199
7265.56    3000.371094    3004.761719
7267.03    2999.223633    2995.367187
7268.50    3107.111572    3094.600830
7269.97    3105.813477    3102.243652
7271.44    2969.803955    2964.461670
7272.91    2986.793701    2994.922607
7274.38    2890.177002    2904.641113
7275.85    2747.928711    2750.648438
7277.32    2823.406250    2831.801025
7278.79    2869.414795    2888.355713
7280.26    2949.785400    2952.134277
7281.73    3173.953125    3183.967529
7283.20    3294.947021    3310.863281
7284.67    3306.674561    3323.027832
7286.14    3211.150635    3223.549316
7287.61    3069.085693    3071.744629
7289.08    2849.847412    2837.055420
7290.55    2843.685059    2840.076416
7292.02    2825.250244    2825.822021
7293.49    2895.183105    2889.559082
7294.96    2908.104492    2898.362549
7296.43    3034.325195    3036.889160
7297.90    3126.771484    3124.280273
7299.37    3031.931396    3031.450439
7300.84    3001.734375    2990.339600
7302.31    2958.375977    2948.535889
7303.78    2885.964111    2888.929443
7305.25    2951.989746    2947.042480
7306.72    3072.243896    3072.297119
7308.19    3080.158936    3076.409668
7309.66    3081.813232    3086.761230
7311.13    3001.692627    3024.456055
7312.60    3036.676758    3033.257568
7314.07    3094.390137    3081.614990
7315.54    3024.244385    3019.822510
7317.01    3035.168457    3057.576904
7318.48    3075.140137    3094.060059
7319.95    3152.321533    3147.947266
7321.42    3269.972412    3268.083496
7322.89    3371.655029    3383.508301
7324.36    3413.173584    3410.331787
7325.83    3335.129639    3332.144775
7327.30    3308.444824    3331.517578
7328.77    3303.399414    3311.636475
7330.24    3317.715332    3312.268066
7331.71    3346.446289    3352.008057
7333.18    3309.714111    3308.679199
7334.65    3374.531982    3363.627686
7336.12    3399.572266    3380.364990
7337.59    3387.677979    3390.995605
7339.06    3425.418945    3401.141602
7340.53    3381.467529    3359.331055
7342.00    3404.148926    3384.571777
7343.47    3473.943604    3473.360107
7344.94    3416.820801    3404.898682
7346.41    3385.520020    3366.502441
7347.88    3300.860352    3305.444824
7349.35    3282.838135    3273.790039
7350.82    3445.786377    3445.783447
7352.29    3428.315186    3438.039795
7353.76    3450.688232    3453.061279
7355.23    3439.124268    3439.396484
7356.70    3372.374756    3366.300049
7358.17    3424.223145    3422.129883
7359.64    3390.073242    3398.157227
7361.12    3450.562500    3439.895996
7362.59    3400.919189    3401.398682
7364.06    3187.682373    3183.918213
7365.53    3369.327393    3373.672119
7367.00    3385.020996    3395.652100
7368.47    3352.972168    3352.645020
7369.94    3318.614746    3338.701416
7371.41    3432.918213    3430.649658
7372.88    3390.853027    3377.774658
7374.35    3389.242432    3390.903076
7375.82    3368.384766    3369.458496
7377.29    3369.351562    3368.593994
7378.76    3329.533447    3324.780029
7380.23    3376.012695    3376.768799
7381.70    3481.332031    3485.844971
7383.17    3489.890381    3494.427734
7384.64    3393.974365    3404.797119
7386.11    3441.437012    3455.036865
7387.58    3392.166504    3389.384277
7389.05    3398.735840    3399.119629
7390.52    3363.258057    3356.075439
7391.99    3439.687256    3436.750244
7393.46    3320.985352    3334.237061
7394.93    3304.976318    3316.333008
7396.40    3340.645508    3330.650635
7397.87    3332.851318    3325.696777
7399.34    3358.641357    3354.475098
7400.81    3299.711914    3296.253906
7402.28    3403.476318    3421.062988
7403.75    3380.752197    3384.957275
7405.22    3365.683105    3363.272217
7406.69    3403.613037    3403.043701
7408.16    3396.114258    3380.983154
7409.63    3462.576660    3454.857910
7411.10    3435.868896    3439.474121
7412.57    3400.324463    3394.072021
7414.04    3515.724609    3517.674316
7415.51    3518.047119    3514.792236
7416.98    3437.788330    3430.937744
7418.45    3503.040283    3502.720703
7419.92    3411.562988    3423.524902
7421.39    3416.298340    3414.986084
7422.86    3389.090332    3381.642822
7424.33    3341.892090    3334.445801
7425.80    3441.290039    3442.549561
7427.27    3424.300781    3429.218994
7428.74    3557.664551    3549.887939
7430.21    3510.557617    3522.175049
7431.68    3453.511475    3455.106934
7433.15    3460.539795    3453.995117
7434.62    3454.945801    3443.063477
7436.09    3443.580078    3452.064941
7437.56    3333.468262    3325.906006
7439.03    3474.650391    3463.327148
7440.50    3427.242188    3423.021973
7441.97    3336.207031    3318.455566
7443.44    3380.572021    3377.028564
7444.91    3396.263184    3394.557861
7446.38    3494.596680    3486.988770
7447.85    3500.491455    3503.211914
7449.32    3393.442139    3395.823242
7450.79    3375.156982    3369.646973
7452.26    3414.537109    3416.436523
7453.73    3490.246338    3496.695312
7455.20    3520.401367    3510.351807
7456.67    3460.133301    3459.848877
7458.14    3409.953369    3419.416260
7459.61    3387.662598    3392.435547
7461.08    3366.035645    3365.139404
7462.55    3332.597412    3336.793701
7464.02    3360.919922    3356.110596
7465.49    3373.435791    3354.987305
7466.96    3292.367920    3298.484375
7468.44    3344.363770    3354.816650
7469.91    3268.161377    3280.587158
7471.38    3313.564209    3310.771729
7472.85    3268.944824    3269.261230
7474.32    3246.566650    3238.722656
7475.79    3411.436279    3407.973389
7477.26    3311.308350    3329.210693
7478.73    3321.687500    3320.032471
7480.20    3355.429443    3353.472900
7481.67    3319.468018    3319.434082
7483.14    3316.754395    3315.770020
7484.61    3317.589600    3310.102295
7486.08    3355.961670    3344.930664
7487.55    3341.460449    3347.156006
7489.02    3463.893555    3473.508545
7490.49    3302.616211    3307.994385
7491.96    3251.306152    3255.092285
7493.43    3370.061523    3251.645508
7494.90    3115.109863    3121.723389
7496.37    3188.825439    3188.188965
7497.84    3178.391602    3162.600098
7499.31    3087.737061    3075.407471
7500.78    3108.799072    3096.788574
7502.25    3211.126465    3200.578857
7503.72    3128.442627    3113.534912
7505.19    3135.556396    3135.374023
7506.66    3226.906006    3212.617920
7508.13    3198.948486    3185.735107
7509.60    3160.699707    3156.230713
7511.07    3155.300537    3153.280518
7512.54    3052.656006    3049.142334
7514.01    3081.734375    3076.931885
7515.48    3131.527832    3132.304443
7516.95    3207.564453    3209.846680
7518.42    3126.008545    3124.822754
7519.89    3080.618652    3088.397217
7521.36    3069.503418    3068.441162
7522.83    3056.848389    3050.915527
7524.30    3134.821533    3159.807617
7525.77    2939.959229    2937.531738
7527.24    2964.741699    2974.739258
7528.71    2877.655273    2885.367920
7530.18    3003.463379    3001.776123
7531.65    2971.688232    2978.722900
7533.12    2862.068604    2873.426270
7534.59    2902.535889    2895.782471
