#Wavelength     Flux
#[Angstrom]   [Counts]
3923.59     0.000000
3925.22     0.000000
3926.84     0.000000
3928.46     0.000000
3930.09     0.000000
3931.71     0.000000
3933.34     0.000000
3934.96     0.000000
3936.58     0.000000
3938.21     0.000000
3939.83     0.000000
3941.46     0.000000
3943.08     0.000000
3944.70     0.000000
3946.33     0.000000
3947.95    -584.277700
3949.58    -1830.253000
3951.20    -2738.487000
3952.82    5991.625000
3954.45    12206.310000
3956.07    8255.273000
3957.70    6917.450000
3959.32    6445.217000
3960.94    5670.005000
3962.57    5957.014000
3964.19    6152.422000
3965.82    6481.733000
3967.44    7623.083000
3969.06    8880.837000
3970.69    9472.884000
3972.31    9816.377000
3973.94    11009.230000
3975.56    11664.860000
3977.18    12495.080000
3978.81    14234.560000
3980.43    13896.400000
3982.06    13051.520000
3983.68    13831.840000
3985.30    13386.860000
3986.93    12112.790000
3988.55    10541.650000
3990.18    9265.533000
3991.80    8687.878000
3993.43    7673.298000
3995.05    7058.186000
3996.67    6949.938000
3998.30    7300.285000
3999.92    8270.698000
4001.55    9427.030000
4003.17    10762.370000
4004.79    11802.610000
4006.42    13664.090000
4008.04    14600.850000
4009.67    15741.770000
4011.29    16508.450000
4012.91    16839.300000
4014.54    16853.070000
4016.16    17032.830000
4017.79    18404.570000
4019.41    18619.630000
4021.03    18666.830000
4022.66    18067.110000
4024.28    18064.460000
4025.91    18682.810000
4027.53    19544.770000
4029.15    18054.550000
4030.78    19210.040000
4032.40    19808.480000
4034.03    18374.460000
4035.65    18943.010000
4037.27    19825.780000
4038.90    20380.160000
4040.52    19741.670000
4042.15    19320.960000
4043.77    20144.610000
4045.39    20978.090000
4047.02    20212.690000
4048.64    20897.800000
4050.27    20881.750000
4051.89    21004.550000
4053.51    20453.780000
4055.14    19811.710000
4056.76    20110.470000
4058.39    19816.620000
4060.01    18692.390000
4061.64    18400.380000
4063.26    17611.450000
4064.88    18848.940000
4066.51    20304.540000
4068.13    20880.350000
4069.76    19087.780000
4071.38    19556.220000
4073.00    18421.060000
4074.63    18494.570000
4076.25    18418.290000
4077.88    19207.210000
4079.50    19576.060000
4081.12    19684.390000
4082.75    19451.080000
4084.37    19266.660000
4086.00    19751.490000
4087.62    19354.210000
4089.24    18344.820000
4090.87    19222.790000
4092.49    17891.170000
4094.12    18509.940000
4095.74    18510.680000
4097.36    18346.660000
4098.99    19500.440000
4100.61    19103.170000
4102.24    18748.450000
4103.86    19285.180000
4105.48    18767.590000
4107.11    19625.550000
4108.73    19675.120000
4110.36    20855.850000
4111.98    20730.660000
4113.60    21418.870000
4115.23    22110.850000
4116.85    21712.240000
4118.48    21555.250000
4120.10    22562.270000
4121.73    21524.680000
4123.35    20368.150000
4124.97    20202.620000
4126.60    19387.370000
4128.22    18911.630000
4129.85    19369.390000
4131.47    18323.490000
4133.09    18178.560000
4134.72    19718.940000
4136.34    20282.590000
4137.97    19402.620000
4139.59    20198.870000
4141.21    20363.540000
4142.84    20316.380000
4144.46    20493.380000
4146.09    19779.980000
4147.71    19817.460000
4149.33    20855.800000
4150.96    19392.920000
4152.58    20211.350000
4154.21    20333.560000
4155.83    19748.980000
4157.45    19988.450000
4159.08    19898.960000
4160.70    19511.360000
4162.33    18578.010000
4163.95    19630.570000
4165.57    18037.580000
4167.20    19164.470000
4168.82    19897.490000
4170.45    19342.080000
4172.07    18107.910000
4173.69    18763.120000
4175.32    18904.680000
4176.94    17757.450000
4178.57    19473.100000
4180.19    17944.230000
4181.81    19146.260000
4183.44    18684.610000
4185.06    18859.170000
4186.69    19090.650000
4188.31    19250.730000
4189.94    20218.880000
4191.56    19881.200000
4193.18    19574.590000
4194.81    19994.480000
4196.43    19786.250000
4198.06    19934.150000
4199.68    19032.630000
4201.30    18547.630000
4202.93    18476.520000
4204.55    18188.090000
4206.18    18430.480000
4207.80    17947.370000
4209.42    17931.310000
4211.05    19088.410000
4212.67    18963.600000
4214.30    18810.470000
4215.92    19720.180000
4217.54    19672.270000
4219.17    20602.130000
4220.79    18997.800000
4222.41    20005.030000
4224.04    19640.350000
4225.66    19496.360000
4227.29    18735.700000
4228.91    18124.710000
4230.54    19169.130000
4232.16    19111.880000
4233.78    20157.710000
4235.41    20717.840000
4237.03    20186.310000
4238.66    20514.110000
4240.28    20537.900000
4241.90    20595.570000
4243.53    20464.430000
4245.15    19938.120000
4246.78    20972.370000
4248.40    21159.540000
4250.02    22185.210000
4251.65    20502.000000
4253.27    19948.770000
4254.90    18576.780000
4256.52    17894.480000
4258.14    18932.730000
4259.77    18952.380000
4261.39    19635.810000
4263.02    20360.390000
4264.64    20727.900000
4266.26    21251.110000
4267.89    22142.280000
4269.51    21916.640000
4271.14    22642.340000
4272.76    22447.910000
4274.39    21697.830000
4276.01    22639.440000
4277.63    22539.730000
4279.26    21748.810000
4280.88    20823.390000
4282.51    20393.870000
4284.13    21116.030000
4285.75    21278.120000
4287.38    21307.720000
4289.00    21948.610000
4290.62    21778.000000
4292.25    22583.300000
4293.87    22560.830000
4295.50    22282.470000
4297.12    22466.650000
4298.74    21071.390000
4300.37    20571.380000
4301.99    19955.790000
4303.62    19228.130000
4305.24    19454.630000
4306.86    19695.760000
4308.49    20289.520000
4310.11    20896.440000
4311.74    21326.060000
4313.36    21369.850000
4314.99    20786.380000
4316.61    20633.770000
4318.23    20572.980000
4319.86    19568.460000
4321.48    19258.830000
4323.11    19689.630000
4324.73    19076.720000
4326.35    18920.650000
4327.98    18360.310000
4329.60    16616.880000
4331.23    16078.030000
4332.85    15921.460000
4334.47    15633.090000
4336.10    15506.150000
4337.72    15412.120000
4339.35    15659.400000
4340.97    16789.940000
4342.59    18700.270000
4344.22    20870.100000
4345.84    22934.550000
4347.47    23799.480000
4349.09    24262.720000
4350.71    24855.110000
4352.34    24397.960000
4353.96    23012.010000
4355.59    22241.850000
4357.21    22678.120000
4358.84    23607.960000
4360.46    24046.060000
4362.08    24886.090000
4363.71    25149.010000
4365.33    25170.600000
4366.95    24584.420000
4368.58    23616.290000
4370.20    23007.990000
4371.83    23258.400000
4373.45    22792.640000
4375.07    23432.220000
4376.70    24734.830000
4378.32    25905.010000
4379.95    25443.860000
4381.57    25059.090000
4383.19    24727.310000
4384.82    24234.670000
4386.44    23980.710000
4388.07    24070.620000
4389.69    25020.470000
4391.31    25179.540000
4392.94    26091.070000
4394.56    26774.140000
4396.19    27086.090000
4397.81    26388.270000
4399.44    25985.570000
4401.06    24899.130000
4402.68    25161.460000
4404.31    24473.810000
4405.93    24334.340000
4407.56    23996.740000
4409.18    22974.980000
4410.80    23537.420000
4412.43    21993.150000
4414.05    21427.800000
4415.68    21807.110000
4417.30    21956.320000
4418.92    22735.270000
4420.55    23365.330000
4422.17    23651.740000
4423.80    24943.610000
4425.42    24821.450000
4427.04    24352.600000
4428.67    24903.810000
4430.29    26344.410000
4431.92    24300.370000
4433.54    24138.290000
4435.16    24517.680000
4436.79    23255.570000
4438.41    24152.010000
4440.04    23970.010000
4441.66    25298.600000
4443.28    26554.150000
4444.91    27051.330000
4446.53    27787.990000
4448.16    27225.870000
4449.78    27480.980000
4451.40    27208.790000
4453.03    28507.740000
4454.65    27185.360000
4456.28    27671.620000
4457.90    28466.700000
4459.52    27236.050000
4461.15    27108.650000
4462.77    27317.130000
4464.40    26935.440000
4466.02    26937.580000
4467.65    27549.870000
4469.27    26995.500000
4470.89    27152.610000
4472.52    26887.670000
4474.14    27893.510000
4475.77    28563.930000
4477.39    29237.530000
4479.01    29933.330000
4480.64    30041.940000
4482.26    28995.660000
4483.89    28747.430000
4485.51    28458.790000
4487.13    26848.120000
4488.76    26287.210000
4490.38    26202.150000
4492.01    26939.350000
4493.63    26506.810000
4495.25    27324.150000
4496.88    28413.200000
4498.50    29052.390000
4500.13    28920.080000
4501.75    29804.130000
4503.38    30185.830000
4505.00    31939.560000
4506.62    31318.230000
4508.25    31682.800000
4509.87    31286.760000
4511.49    30622.380000
4513.12    30958.340000
4514.74    31580.320000
4516.37    32073.720000
4517.99    31417.330000
4519.61    31403.890000
4521.24    30524.820000
4522.86    30097.220000
4524.49    30673.550000
4526.11    30247.680000
4527.73    30131.590000
4529.36    30838.090000
4530.98    30645.980000
4532.61    32719.230000
4534.23    33797.170000
4535.85    34295.760000
4537.48    34273.200000
4539.10    34046.450000
4540.73    34028.430000
4542.35    34219.870000
4543.98    33542.760000
4545.60    32976.000000
4547.22    33142.100000
4548.85    32316.250000
4550.47    32432.740000
4552.10    32591.660000
4553.72    32224.640000
4555.34    31524.510000
4556.97    29871.210000
4558.59    29253.720000
4560.22    28454.820000
4561.84    27494.700000
4563.46    27000.510000
4565.09    28304.780000
4566.71    29219.310000
4568.34    29988.890000
4569.96    30908.690000
4571.58    30533.160000
4573.21    31298.480000
4574.83    31060.660000
4576.46    30899.510000
4578.08    31595.110000
4579.70    30865.610000
4581.33    31186.340000
4582.95    31482.970000
4584.58    30529.380000
4586.20    30899.000000
4587.82    32687.290000
4589.45    33127.640000
4591.07    33390.510000
4592.70    34038.880000
4594.32    33643.360000
4595.94    33482.550000
4597.57    33301.140000
4599.19    32893.120000
4600.82    33136.540000
4602.44    33960.930000
4604.06    34300.510000
4605.69    33289.500000
4607.31    33040.520000
4608.94    33126.020000
4610.56    32831.430000
4612.19    32467.060000
4613.81    31827.460000
4615.43    31894.560000
4617.06    32471.950000
4618.68    32718.880000
4620.31    32571.070000
4621.93    32960.320000
4623.55    32657.130000
4625.18    32397.760000
4626.80    32630.240000
4628.43    31519.310000
4630.05    31743.180000
4631.67    32513.640000
4633.30    31734.480000
4634.92    32363.630000
4636.55    33322.780000
4638.17    33280.020000
4639.79    33862.320000
4641.42    34077.390000
4643.04    34574.570000
4644.67    34531.160000
4646.29    34168.950000
4647.91    34109.410000
4649.54    34355.380000
4651.16    34283.500000
4652.79    35207.570000
4654.41    34733.870000
4656.03    34186.180000
4657.66    34815.950000
4659.28    34439.060000
4660.91    34140.680000
4662.53    34752.240000
4664.15    34634.890000
4665.78    33309.690000
4667.40    32193.430000
4669.03    32135.600000
4670.65    32588.370000
4672.27    31743.350000
4673.90    30993.890000
4675.52    31806.220000
4677.15    31247.610000
4678.77    30541.430000
4680.40    31250.300000
4682.02    30500.780000
4683.64    30335.520000
4685.27    31595.550000
4686.89    32077.920000
4688.52    31886.400000
4690.14    32605.930000
4691.76    32504.080000
4693.39    32721.430000
4695.01    32018.710000
4696.64    31514.950000
4698.26    31099.790000
4699.88    30879.100000
4701.51    29902.400000
4703.13    29891.350000
4704.76    29895.240000
4706.38    29762.150000
4708.00    30725.290000
4709.63    30107.380000
4711.25    30292.010000
4712.88    30639.730000
4714.50    31112.650000
4716.12    31034.110000
4717.75    31277.580000
4719.37    30776.180000
4721.00    31481.550000
4722.62    30846.230000
4724.24    31627.960000
4725.87    29539.280000
4727.49    30750.370000
4729.12    31740.990000
4730.74    30901.310000
4732.36    30196.500000
4733.99    28904.640000
4735.61    29927.970000
4737.24    29685.500000
4738.86    29816.940000
4740.48    29312.200000
4742.11    30304.770000
4743.73    29944.970000
4745.36    30765.830000
4746.98    31147.090000
4748.60    32205.180000
4750.23    31797.570000
4751.85    31861.460000
4753.48    32780.480000
4755.10    32382.770000
4756.73    33061.130000
4758.35    32093.380000
4759.97    32391.640000
4761.60    30911.880000
4763.22    30531.670000
4764.85    29476.410000
4766.47    30202.170000
4768.09    30659.010000
4769.72    30790.910000
4771.34    31764.040000
4772.97    31720.960000
4774.59    32195.700000
4776.21    32588.920000
4777.84    33317.080000
4779.46    33758.890000
4781.09    32999.240000
4782.71    33467.070000
4784.33    32332.850000
4785.96    33145.910000
4787.58    32621.540000
4789.21    32378.110000
4790.83    32279.570000
4792.45    31877.530000
4794.08    31255.000000
4795.70    30857.440000
4797.33    30939.610000
4798.95    31208.240000
4800.57    30976.480000
4802.20    31007.260000
4803.82    31383.880000
4805.45    31385.060000
4807.07    32514.420000
4808.69    32190.920000
4810.32    33400.540000
4811.94    33114.680000
4813.57    31798.000000
4815.19    32172.950000
4816.81    32434.160000
4818.44    31093.550000
4820.06    31889.390000
4821.69    32405.000000
4823.31    31455.080000
4824.94    32248.970000
4826.56    32196.760000
4828.18    31863.860000
4829.81    32292.410000
4831.43    33610.600000
4833.06    33549.160000
4834.68    33184.380000
4836.30    32730.850000
4837.93    32854.380000
4839.55    32421.340000
4841.18    32688.530000
4842.80    32533.040000
4844.42    31632.850000
4846.05    32356.290000
4847.67    33061.300000
4849.30    33705.170000
4850.92    33493.480000
4852.54    33569.150000
4854.17    33174.180000
4855.79    33086.910000
4857.42    33018.770000
4859.04    32851.920000
4860.66    32625.820000
4862.29    32539.140000
4863.91    32073.910000
4865.54    32426.750000
4867.16    32239.570000
4868.78    31744.910000
4870.41    32511.410000
4872.03    32267.190000
4873.66    32053.130000
4875.28    31965.210000
4876.90    31941.450000
4878.53    31951.020000
4880.15    32201.430000
4881.78    32057.460000
4883.40    32308.120000
4885.02    32410.940000
4886.65    31129.170000
4888.27    30381.740000
4889.90    30128.400000
4891.52    29845.920000
4893.15    29236.680000
4894.77    29759.220000
4896.39    29306.390000
4898.02    28595.550000
4899.64    28996.900000
4901.27    29330.240000
4902.89    29718.290000
4904.51    29880.470000
4906.14    29573.140000
4907.76    29912.000000
4909.39    30279.360000
4911.01    30925.620000
4912.63    32190.140000
4914.26    32172.700000
4915.88    31832.000000
4917.51    31796.740000
4919.13    30847.880000
4920.75    30496.630000
4922.38    30501.000000
4924.00    31165.490000
4925.63    31567.370000
4927.25    32156.660000
4928.87    32838.450000
4930.50    32867.370000
4932.12    34305.980000
4933.75    34723.400000
4935.37    33797.830000
4936.99    33567.410000
4938.62    33621.030000
4940.24    33865.920000
4941.87    34007.000000
4943.49    33130.510000
4945.11    32695.830000
4946.74    32721.610000
4948.36    32134.000000
4949.99    32277.600000
4951.61    31934.490000
4953.23    31141.450000
4954.86    31087.940000
4956.48    31438.750000
4958.11    31441.100000
4959.73    32105.630000
4961.35    32054.960000
4962.98    32396.660000
4964.60    33930.280000
4966.23    33621.710000
4967.85    33427.160000
4969.48    33247.420000
4971.10    33229.120000
4972.72    33038.460000
4974.35    32550.250000
4975.97    32826.110000
4977.60    33409.230000
4979.22    33666.410000
4980.84    34661.310000
4982.47    35375.070000
4984.09    34349.950000
4985.72    34373.480000
4987.34    34744.890000
4988.96    34000.440000
4990.59    33315.080000
4992.21    33456.280000
4993.84    33271.640000
4995.46    33473.540000
4997.08    32617.660000
4998.71    32657.660000
5000.33    32945.140000
5001.96    32640.290000
5003.58    32583.430000
5005.20    32694.880000
5006.83    32794.020000
5008.45    33135.190000
5010.08    32929.020000
5011.70    32476.060000
5013.32    31883.690000
5014.95    30882.530000
5016.57    30830.540000
5018.20    30350.480000
5019.82    30257.260000
5021.44    30828.790000
5023.07    31034.540000
5024.69    31546.230000
5026.32    31600.730000
5027.94    31840.510000
5029.56    31897.810000
5031.19    32186.690000
5032.81    31880.340000
5034.44    30864.280000
5036.06    30807.000000
5037.69    30823.710000
5039.31    30675.270000
5040.93    30871.980000
5042.56    31028.990000
5044.18    31632.670000
5045.81    31478.190000
5047.43    30815.200000
5049.05    29707.110000
5050.68    29165.910000
5052.30    29008.680000
5053.93    29236.160000
5055.55    29757.910000
5057.17    30012.170000
5058.80    30333.810000
5060.42    30118.820000
5062.05    30728.650000
5063.67    31334.990000
5065.29    31989.010000
5066.92    31927.730000
5068.54    31677.500000
5070.17    31461.900000
5071.79    31578.370000
5073.41    30226.560000
5075.04    29668.540000
5076.66    29646.460000
5078.29    30262.370000
5079.91    30337.220000
5081.53    30687.360000
5083.16    31205.680000
5084.78    31409.450000
5086.41    31094.290000
5088.03    31538.740000
5089.65    32035.460000
5091.28    32666.530000
5092.90    32553.850000
5094.53    32195.040000
5096.15    32668.370000
5097.77    32856.380000
5099.40    32412.290000
5101.02    31151.940000
5102.65    31585.200000
5104.27    31594.360000
5105.90    30958.100000
5107.52    30773.860000
5109.14    30230.220000
5110.77    30578.970000
5112.39    29987.360000
5114.02    30069.220000
5115.64    29766.000000
5117.26    29706.440000
5118.89    29713.520000
5120.51    29775.900000
5122.14    30512.500000
5123.76    30449.970000
5125.38    30606.490000
5127.01    30981.040000
5128.63    31598.850000
5130.26    31452.480000
5131.88    31694.450000
5133.50    30698.150000
5135.13    29896.740000
5136.75    29958.360000
5138.38    29829.670000
5140.00    29848.820000
5141.62    29390.850000
5143.25    30184.870000
5144.87    29853.550000
5146.50    30076.230000
5148.12    30760.810000
5149.74    30537.480000
5151.37    30811.230000
5152.99    32033.540000
5154.62    31459.280000
5156.24    30660.800000
5157.86    29947.910000
5159.49    29461.210000
5161.11    29129.390000
5162.74    29256.300000
5164.36    29188.530000
5165.98    28511.400000
5167.61    29593.800000
5169.23    30033.890000
5170.86    29888.860000
5172.48    29762.950000
5174.10    29724.500000
5175.73    29947.260000
5177.35    29567.700000
5178.98    28675.680000
5180.60    28830.330000
5182.23    28710.640000
5183.85    28731.430000
5185.47    28341.510000
5187.10    28556.120000
5188.72    28480.420000
5190.35    28841.290000
5191.97    28656.490000
5193.59    29243.920000
5195.22    29379.040000
5196.84    28649.470000
5198.47    27901.590000
5200.09    26612.660000
5201.71    25472.730000
5203.34    23951.320000
5204.96    22934.760000
5206.59    22576.940000
5208.21    22319.560000
5209.83    22704.310000
5211.46    23275.060000
5213.08    24138.380000
5214.71    24047.510000
5216.33    24267.460000
5217.95    24548.270000
5219.58    24652.050000
5221.20    24843.140000
5222.83    24996.770000
5224.45    26125.190000
5226.07    27218.340000
5227.70    28084.850000
5229.32    28987.220000
5230.95    29579.220000
5232.57    30068.120000
5234.19    30127.460000
5235.82    29489.920000
5237.44    29555.910000
5239.07    29744.600000
5240.69    29170.210000
5242.31    28676.110000
5243.94    27822.720000
5245.56    28262.810000
5247.19    27949.180000
5248.81    28973.390000
5250.44    29529.870000
5252.06    29978.360000
5253.68    30691.430000
5255.31    31421.650000
5256.93    31428.270000
5258.56    31134.420000
5260.18    30681.990000
5261.80    30373.050000
5263.43    30139.150000
5265.05    30486.170000
5266.68    30630.520000
5268.30    31086.140000
5269.92    30713.120000
5271.55    30954.590000
5273.17    32052.340000
5274.80    32123.760000
5276.42    32468.270000
5278.04    33101.430000
5279.67    33498.250000
5281.29    33218.790000
5282.91    32342.740000
5284.54    31801.210000
5286.16    31468.250000
5287.79    31619.520000
5289.41    32011.920000
5291.04    32143.230000
5292.66    31913.160000
5294.28    31518.560000
5295.91    31799.680000
5297.53    30755.900000
5299.16    30032.780000
5300.78    29150.370000
5302.40    27773.950000
5304.03    28007.130000
5305.65    27729.210000
5307.28    27808.380000
5308.90    28254.220000
5310.52    28782.170000
5312.15    30408.810000
5313.77    31469.050000
5315.40    31289.350000
5317.02    31108.750000
5318.64    32207.860000
5320.27    32490.490000
5321.89    32879.910000
5323.52    33459.740000
5325.14    33306.230000
5326.76    33486.490000
5328.39    34490.370000
5330.01    34012.470000
5331.64    33053.050000
5333.26    32945.970000
5334.89    32964.310000
5336.51    32220.230000
5338.13    32449.040000
5339.76    33077.730000
5341.38    33150.640000
5343.01    33879.400000
5344.63    34742.940000
5346.25    34979.790000
5347.88    34734.860000
5349.50    34548.360000
5351.12    34351.020000
5352.75    34466.480000
5354.37    33878.750000
5356.00    33542.080000
5357.62    33519.410000
5359.24    32332.830000
5360.87    31605.040000
5362.49    31435.940000
5364.12    30749.060000
5365.74    30670.920000
5367.36    30616.150000
5368.99    30750.080000
5370.61    31302.170000
5372.24    31763.410000
5373.86    31992.090000
5375.49    32147.670000
5377.11    31663.170000
5378.73    31651.090000
5380.36    31994.900000
5381.98    32006.250000
5383.61    32224.630000
5385.23    32163.330000
5386.85    32148.070000
5388.48    32379.080000
5390.10    33281.010000
5391.73    33692.980000
5393.35    33747.470000
5394.97    34511.500000
5396.60    34673.600000
5398.22    34518.460000
5399.85    34235.140000
5401.47    33415.260000
5403.09    32335.910000
5404.72    31957.060000
5406.34    32170.090000
5407.97    31858.830000
5409.59    31366.660000
5411.21    31231.710000
5412.84    31871.720000
5414.46    32380.600000
5416.09    32999.260000
5417.71    33457.570000
5419.34    33467.270000
5420.96    33532.940000
5422.58    32927.650000
5424.21    32659.550000
5425.83    33256.110000
5427.45    32446.680000
5429.08    31716.200000
5430.70    31533.440000
5432.33    31224.610000
5433.95    31293.440000
5435.57    30644.710000
5437.20    30635.460000
5438.82    30540.670000
5440.45    30805.390000
5442.07    30234.450000
5443.69    30268.250000
5445.32    30032.570000
5446.94    30442.740000
5448.57    30581.450000
5450.19    31306.530000
5451.81    31686.370000
5453.44    31675.400000
5455.06    33263.740000
5456.69    33351.750000
5458.31    32926.240000
5459.94    33009.860000
5461.56    32769.270000
5463.18    32946.010000
5464.81    32378.510000
5466.43    32419.220000
5468.06    31665.240000
5469.68    30996.220000
5471.30    31559.780000
5472.93    32210.890000
5474.55    32309.760000
5476.18    32812.850000
5477.80    32823.370000
5479.42    33091.670000
5481.05    32885.240000
5482.67    32566.330000
5484.30    32168.460000
5485.92    32566.680000
5487.54    31814.470000
5489.17    31662.110000
5490.79    31399.120000
5492.42    31545.510000
5494.04    31210.200000
5495.66    31966.440000
5497.29    31808.890000
5498.91    31901.550000
5500.54    32254.930000
5502.16    32155.680000
5503.78    32647.490000
5505.41    32286.440000
5507.03    32487.800000
5508.66    32022.670000
5510.28    31294.050000
5511.90    32129.100000
5513.53    31228.680000
5515.15    31154.120000
5516.78    31003.740000
5518.40    31140.950000
5520.02    31161.620000
5521.65    31592.050000
5523.27    31485.850000
5524.90    32289.360000
5526.52    32163.530000
5528.15    31943.410000
5529.77    32392.480000
5531.39    32137.850000
5533.02    31951.090000
5534.64    32783.930000
5536.27    32647.880000
5537.89    32140.810000
5539.51    32533.290000
5541.14    32009.390000
5542.76    32293.260000
5544.39    32197.980000
5546.01    32338.140000
5547.63    31752.790000
5549.26    31590.540000
5550.88    31797.510000
5552.51    32012.050000
5554.13    32698.380000
5555.75    32875.360000
5557.38    32299.240000
5559.00    32913.850000
5560.63    33286.280000
5562.25    33376.790000
5563.88    32750.630000
5565.50    32822.700000
5567.12    32536.320000
5568.75    32594.110000
5570.37    32593.800000
5571.99    33710.420000
5573.62    33715.310000
5575.24    32871.050000
5576.87    32191.740000
5578.49    32289.330000
5580.11    33096.430000
5581.74    33928.050000
5583.36    34267.640000
5584.99    34254.060000
5586.61    34208.650000
5588.23    34499.610000
5589.86    34641.800000
5591.48    33485.340000
5593.11    34015.210000
5594.73    33222.210000
5596.35    32811.020000
5597.98    32671.030000
5599.60    33051.210000
5601.23    33128.820000
5602.85    33043.090000
5604.48    32995.630000
5606.10    33184.580000
5607.72    32538.180000
5609.35    32949.660000
5610.97    33403.990000
5612.60    33414.120000
5614.22    33421.870000
5615.84    33198.350000
5617.47    32882.040000
5619.09    32760.380000
5620.72    32552.300000
5622.34    32282.740000
5623.96    31915.540000
5625.59    31064.870000
5627.21    31232.980000
5628.84    30922.560000
5630.46    30207.360000
5632.08    30104.710000
5633.71    30337.300000
5635.33    30805.290000
5636.96    31724.540000
5638.58    32194.250000
5640.20    32077.540000
5641.83    32016.200000
5643.45    32260.090000
5645.08    32659.660000
5646.70    33218.360000
5648.32    33630.450000
5649.95    33637.840000
5651.57    33382.680000
5653.20    33054.300000
5654.82    32683.130000
5656.44    32452.250000
5658.07    32364.950000
5659.69    31984.210000
5661.32    31514.180000
5662.94    32562.970000
5664.56    32742.010000
5666.19    32504.000000
5667.81    31920.720000
5669.44    32866.770000
5671.06    33345.620000
5672.69    33417.700000
5674.31    32987.860000
5675.93    32185.480000
5677.56    32141.840000
5679.18    32119.300000
5680.81    32154.210000
5682.43    32460.960000
5684.05    32726.800000
5685.68    32985.660000
5687.30    33389.600000
5688.93    32994.400000
5690.55    32712.550000
5692.17    32459.660000
5693.80    32305.560000
5695.42    32100.290000
5697.05    31857.830000
5698.67    31595.480000
5700.29    31864.000000
5701.92    32094.890000
5703.54    32346.230000
5705.17    32576.470000
5706.79    33076.020000
5708.41    32691.500000
5710.04    32624.600000
5711.66    32880.820000
5713.29    33236.680000
5714.91    33549.230000
5716.53    33705.810000
5718.16    33729.480000
5719.78    32903.750000
5721.41    33126.950000
5723.03    33350.880000
5724.65    33401.990000
5726.28    32572.570000
5727.90    32709.870000
5729.53    32995.910000
5731.15    33228.010000
5732.77    32943.110000
5734.40    33147.420000
5736.02    33462.160000
5737.65    33316.960000
5739.27    32857.240000
5740.90    32837.070000
5742.52    32992.900000
5744.14    32674.460000
5745.77    32022.780000
5747.39    31753.910000
5749.02    31819.580000
5750.64    32102.180000
5752.26    32086.090000
5753.89    32308.250000
5755.51    33016.250000
5757.14    33872.340000
5758.76    34148.680000
5760.38    34305.050000
5762.01    34357.930000
5763.63    34852.070000
5765.26    34792.890000
5766.88    34578.450000
5768.50    34281.790000
5770.13    34389.120000
5771.75    34186.400000
5773.38    33938.800000
5775.00    34411.690000
5776.62    34432.220000
5778.25    34355.840000
5779.87    34197.240000
5781.50    34658.130000
5783.12    34792.840000
5784.74    34805.950000
5786.37    34739.890000
5787.99    33930.520000
5789.62    34240.910000
5791.24    34515.030000
5792.86    34855.280000
5794.49    33928.640000
5796.11    33919.870000
5797.74    33999.860000
5799.36    34252.290000
5800.98    34229.620000
5802.61    34352.770000
5804.23    34426.170000
5805.86    34300.960000
5807.48    34857.720000
5809.10    34960.370000
5810.73    34919.400000
5812.35    34982.130000
5813.98    34508.310000
5815.60    34334.470000
5817.23    34244.950000
5818.85    34275.140000
5820.47    33272.060000
5822.10    33139.290000
5823.72    33531.790000
5825.35    32971.900000
5826.97    33055.130000
5828.59    33121.010000
5830.22    33156.380000
5831.84    33906.500000
5833.47    34646.920000
5835.09    35044.310000
5836.71    34937.030000
5838.34    34518.450000
5839.96    34988.210000
5841.59    35455.770000
5843.21    35741.000000
5844.83    35825.410000
5846.46    35455.630000
5848.08    35115.980000
5849.71    35820.250000
5851.33    35497.290000
5852.95    35025.880000
5854.58    34559.410000
5856.20    35494.140000
5857.83    35040.100000
5859.45    35213.960000
5861.07    35719.870000
5862.70    35660.940000
5864.32    35875.310000
5865.95    36129.670000
5867.57    36447.690000
5869.19    36055.630000
5870.82    35893.050000
5872.44    35725.780000
5874.07    35571.550000
5875.69    35292.290000
5877.31    35348.950000
5878.94    35319.080000
5880.56    35074.790000
5882.19    34459.900000
5883.81    34081.850000
5885.44    33993.160000
5887.06    35211.310000
5888.68    33876.650000
5890.31    33341.310000
5891.93    33010.540000
5893.56    32706.380000
5895.18    32645.370000
5896.80    32463.520000
5898.43    32144.320000
5900.05    31703.650000
5901.68    31776.750000
5903.30    32170.510000
5904.92    32900.290000
5906.55    32415.880000
5908.17    32655.150000
5909.80    32977.860000
5911.42    33533.640000
5913.04    33156.910000
5914.67    33056.140000
5916.29    32678.010000
5917.92    31680.470000
5919.54    31584.720000
5921.16    31027.440000
5922.79    30439.960000
5924.41    30168.550000
5926.04    28317.340000
5927.66    27382.810000
5929.28    26594.940000
5930.91    25281.290000
5932.53    24786.320000
5934.16    24969.890000
5935.78    25429.620000
5937.40    25308.990000
5939.03    25589.330000
5940.65    26381.080000
5942.28    27638.230000
5943.90    27971.330000
5945.52    28925.860000
5947.15    29848.850000
5948.77    30897.840000
5950.40    32246.750000
5952.02    32305.160000
5953.65    32329.010000
5955.27    32562.550000
5956.89    32484.340000
5958.52    32639.630000
5960.14    32753.680000
5961.77    32800.400000
5963.39    32676.120000
5965.01    32287.340000
5966.64    31896.730000
5968.26    32196.400000
5969.89    32542.530000
5971.51    32577.670000
5973.13    32461.030000
5974.76    32704.220000
5976.38    32979.210000
5978.01    33091.740000
5979.63    33026.670000
5981.25    32147.450000
5982.88    32483.870000
5984.50    32937.330000
5986.13    33592.480000
5987.75    32494.260000
5989.37    32336.550000
5991.00    32406.670000
5992.62    32925.890000
5994.25    32120.420000
5995.87    32484.370000
5997.49    32789.230000
5999.12    32616.700000
6000.74    32272.240000
6002.37    32431.260000
6003.99    32805.960000
6005.61    33902.510000
6007.24    32968.810000
6008.86    32604.090000
6010.49    32477.300000
6012.11    33346.340000
6013.73    32953.410000
6015.36    32968.390000
6016.98    33166.550000
6018.61    32826.650000
6020.23    32786.860000
6021.85    32951.340000
6023.48    33339.210000
6025.10    32392.310000
6026.73    32309.320000
6028.35    32258.250000
6029.98    32339.310000
6031.60    32063.200000
6033.22    32429.480000
6034.85    32877.230000
6036.47    33529.380000
6038.10    32706.480000
6039.72    32416.180000
6041.34    32313.120000
6042.97    32751.850000
6044.59    32225.680000
6046.22    32173.480000
6047.84    32218.190000
6049.46    32079.760000
6051.09    31634.930000
6052.71    31593.250000
6054.34    31745.730000
6055.96    31917.920000
6057.58    31726.160000
6059.21    31775.470000
6060.83    32053.840000
6062.46    32261.700000
6064.08    32333.810000
6065.70    32330.480000
6067.33    32307.760000
6068.95    31851.370000
6070.58    31999.840000
6072.20    32379.620000
6073.82    33339.950000
6075.45    33552.840000
6077.07    33346.350000
6078.70    33130.970000
6080.32    33357.820000
6081.94    33054.540000
6083.57    33034.020000
6085.19    33062.750000
6086.82    33127.040000
6088.44    33122.430000
6090.06    33201.140000
6091.69    33285.660000
6093.31    33533.970000
6094.94    33509.050000
6096.56    33373.290000
6098.19    33188.310000
6099.81    33192.030000
6101.43    32917.800000
6103.06    32819.820000
6104.68    33034.010000
6106.31    32895.540000
6107.93    33043.930000
6109.55    33165.370000
6111.18    33308.600000
6112.80    33477.890000
6114.43    33607.010000
6116.05    33750.860000
6117.67    34114.390000
6119.30    33638.000000
6120.92    33210.380000
6122.55    32847.090000
6124.17    32921.020000
6125.79    32756.790000
6127.42    32504.230000
6129.04    32216.210000
6130.67    32694.090000
6132.29    32427.990000
6133.91    32295.720000
6135.54    32190.160000
6137.16    32541.750000
6138.79    32292.950000
6140.41    32179.800000
6142.03    32197.540000
6143.66    32247.040000
6145.28    32517.010000
6146.91    32660.610000
6148.53    32683.400000
6150.15    32087.000000
6151.78    32045.520000
6153.40    31995.650000
6155.03    31829.840000
6156.65    31800.400000
6158.27    31841.980000
6159.90    31820.040000
6161.52    31571.050000
6163.15    31734.690000
6164.77    31784.650000
6166.40    31816.460000
6168.02    32252.170000
6169.64    31872.160000
6171.27    31571.610000
6172.89    31267.470000
6174.52    31821.460000
6176.14    31475.070000
6177.76    31279.670000
6179.39    31216.070000
6181.01    31271.040000
6182.64    31336.750000
6184.26    31371.910000
6185.88    31449.350000
6187.51    31426.220000
6189.13    31799.200000
6190.76    32024.590000
6192.38    31917.310000
6194.00    31116.500000
6195.63    30996.360000
6197.25    30975.390000
6198.88    30963.260000
6200.50    30322.440000
6202.12    30077.010000
6203.75    29847.790000
6205.37    29036.050000
6207.00    28946.060000
6208.62    28681.760000
6210.24    28316.980000
6211.87    29428.520000
6213.49    29186.360000
6215.12    29186.550000
6216.74    29409.290000
6218.36    29708.630000
6219.99    30301.130000
6221.61    30528.430000
6223.24    30325.620000
6224.86    29980.070000
6226.48    30372.060000
6228.11    30514.960000
6229.73    30052.990000
6231.36    30044.920000
6232.98    30144.750000
6234.60    30213.130000
6236.23    30141.180000
6237.85    30183.290000
6239.48    29913.570000
6241.10    29571.420000
6242.73    29651.840000
6244.35    30110.840000
6245.97    30357.310000
6247.60    30397.690000
6249.22    29250.810000
6250.85    29809.660000
6252.47    30134.860000
6254.09    30269.720000
6255.72    29243.150000
6257.34    29199.870000
6258.97    29054.960000
6260.59    28786.330000
6262.21    28341.470000
6263.84    28341.610000
6265.46    28126.840000
6267.09    27470.600000
6268.71    28527.570000
6270.33    28457.680000
6271.96    28066.260000
6273.58    27207.970000
6275.21    27260.370000
6276.83    26795.960000
6278.45    26273.940000
6280.08    26472.370000
6281.70    26808.290000
6283.33    27150.340000
6284.95    27503.970000
6286.57    28211.780000
6288.20    27416.900000
6289.82    27235.820000
6291.45    27414.350000
6293.07    28105.490000
6294.69    28402.440000
6296.32    28871.290000
6297.94    29572.410000
6299.57    29900.350000
6301.19    29871.070000
6302.81    29590.310000
6304.44    28887.430000
6306.06    27518.900000
6307.69    27591.680000
6309.31    27887.430000
6310.94    28467.660000
6312.56    28373.620000
6314.18    28674.030000
6315.81    28949.450000
6317.43    28812.640000
6319.06    28794.700000
6320.68    28884.370000
6322.30    28975.280000
6323.93    29115.510000
6325.55    28828.010000
6327.18    28812.500000
6328.80    28919.730000
6330.42    29332.310000
6332.05    29227.870000
6333.67    29324.520000
6335.30    29630.510000
6336.92    29046.610000
6338.54    29075.540000
6340.17    29091.320000
6341.79    29143.120000
6343.41    28863.860000
6345.04    28862.770000
6346.66    28857.630000
6348.29    28909.610000
6349.91    29068.730000
6351.54    29450.770000
6353.16    29710.480000
6354.78    29396.050000
6356.41    29527.690000
6358.03    29663.800000
6359.66    29770.800000
6361.28    29888.070000
6362.90    29957.680000
6364.53    29696.340000
6366.15    29216.100000
6367.78    29197.860000
6369.40    29272.320000
6371.02    29401.810000
6372.65    29576.550000
6374.27    29992.750000
6375.90    29924.930000
6377.52    29935.740000
6379.15    30150.850000
6380.77    29947.420000
6382.39    29689.830000
6384.02    29535.810000
6385.64    29706.020000
6387.27    29369.530000
6388.89    29229.540000
6390.51    29118.650000
6392.14    29169.730000
6393.76    29026.540000
6395.39    29224.490000
6397.01    29434.740000
6398.63    29263.560000
6400.26    29058.640000
6401.88    29059.470000
6403.51    29085.640000
6405.13    28652.250000
6406.75    28621.660000
6408.38    28525.080000
6410.00    28313.940000
6411.62    29131.860000
6413.25    29391.920000
6414.87    29548.620000
6416.50    29598.870000
6418.12    29817.370000
6419.74    29729.710000
6421.37    29830.310000
6422.99    30454.700000
6424.62    30506.470000
6426.24    30261.260000
6427.86    29961.110000
6429.49    29709.970000
6431.11    29737.610000
6432.74    29785.230000
6434.36    29852.280000
6435.99    30197.460000
6437.61    29798.340000
6439.23    29385.800000
6440.86    28951.240000
6442.48    29251.590000
6444.11    29298.980000
6445.73    29229.660000
6447.35    29029.730000
6448.98    29282.270000
6450.60    29965.880000
6452.23    30045.990000
6453.85    29457.330000
6455.48    29466.250000
6457.10    29548.140000
6458.72    29524.950000
6460.35    29425.400000
6461.97    29062.520000
6463.60    29112.840000
6465.22    29250.220000
6466.84    29622.090000
6468.47    29617.560000
6470.09    29680.440000
6471.72    29701.870000
6473.34    29609.250000
6474.96    29289.460000
6476.59    28950.290000
6478.21    28617.640000
6479.84    28905.220000
6481.46    29132.070000
6483.08    29275.930000
6484.71    29315.150000
6486.33    29486.950000
6487.95    29578.750000
6489.58    29435.710000
6491.20    29052.330000
6492.83    29274.450000
6494.45    29376.730000
6496.07    29508.740000
6497.70    29790.870000
6499.32    29820.340000
6500.95    29690.610000
6502.57    29590.400000
6504.19    29693.950000
6505.82    29318.810000
6507.44    29740.900000
6509.07    30056.180000
6510.69    29464.780000
6512.32    29703.000000
6513.94    29634.740000
6515.56    29442.910000
6517.19    29359.150000
6518.81    29170.550000
6520.44    29449.790000
6522.06    29959.580000
6523.68    30725.410000
6525.31    29814.630000
6526.93    29450.970000
6528.56    29558.430000
6530.18    30076.010000
6531.81    29118.690000
6533.43    28853.780000
6535.05    29640.660000
6536.68    28371.120000
6538.30    28035.500000
6539.93    27806.550000
6541.55    27721.670000
6543.17    27965.410000
6544.80    27995.830000
6546.42    27939.810000
6548.05    27805.640000
6549.67    28756.010000
6551.29    29042.600000
6552.92    29082.670000
6554.54    29002.260000
6556.16    29667.720000
6557.79    30104.960000
6559.41    30376.820000
6561.04    30042.100000
6562.66    29281.640000
6564.28    29211.390000
6565.91    29591.400000
6567.53    30356.270000
6569.16    30121.540000
6570.78    29932.110000
6572.40    29759.590000
6574.03    29495.630000
6575.65    30074.680000
6577.28    30397.240000
6578.90    30258.390000
6580.52    29895.850000
6582.15    30564.850000
6583.77    31034.070000
6585.40    30544.190000
6587.02    30131.900000
6588.65    30033.140000
6590.27    30027.540000
6591.89    30316.430000
6593.52    30428.540000
6595.14    30390.590000
6596.77    30250.460000
6598.39    29864.710000
6600.01    29376.800000
6601.64    29131.230000
6603.26    28970.960000
6604.89    28618.150000
6606.51    28856.860000
6608.13    28827.360000
6609.76    28494.680000
6611.38    28714.990000
6613.01    29066.330000
6614.63    29186.950000
6616.26    28988.530000
6617.88    29055.190000
6619.50    28998.910000
6621.13    29001.220000
6622.75    29347.980000
6624.38    29996.720000
6626.00    30341.710000
6627.62    30682.960000
6629.25    31489.250000
6630.87    31969.600000
6632.49    32196.690000
6634.12    32237.660000
6635.74    31691.880000
6637.37    31262.550000
6638.99    30574.720000
6640.61    29640.950000
6642.24    29090.600000
6643.86    29188.050000
6645.49    29121.550000
6647.11    28895.090000
6648.73    29178.480000
6650.36    29351.790000
6651.98    29403.730000
6653.61    29356.860000
6655.23    28705.680000
6656.85    28518.420000
6658.48    28567.250000
6660.10    29206.730000
6661.73    29585.980000
6663.35    29424.160000
6664.98    29204.400000
6666.60    29204.640000
6668.22    29273.170000
6669.85    29387.090000
6671.47    29407.030000
6673.10    28833.090000
6674.72    28674.370000
6676.34    28632.800000
6677.97    28604.620000
6679.59    28567.210000
6681.22    28552.310000
6682.84    28465.600000
6684.46    28324.060000
6686.09    28313.490000
6687.71    28508.780000
6689.34    28690.590000
6690.96    28960.330000
6692.59    28397.070000
6694.21    28398.310000
6695.83    28458.450000
6697.46    28655.380000
6699.08    28531.910000
6700.70    28412.470000
6702.33    28307.540000
6703.95    28368.400000
6705.58    28577.490000
6707.20    28325.840000
6708.82    28000.370000
6710.45    28348.330000
6712.07    28399.120000
6713.70    28305.770000
6715.32    28122.150000
6716.94    28251.460000
6718.57    28047.800000
6720.19    28089.490000
6721.82    28256.180000
6723.44    28041.410000
6725.06    28098.910000
6726.69    28340.390000
6728.31    28815.090000
6729.94    28004.870000
6731.56    27887.800000
6733.19    27951.390000
6734.81    28345.900000
6736.43    27997.100000
6738.06    27925.810000
6739.68    27822.700000
6741.31    27595.410000
6742.93    27340.340000
6744.55    27537.040000
6746.18    27771.990000
6747.80    27773.090000
6749.43    27436.620000
6751.05    27388.160000
6752.67    27406.380000
6754.30    27410.240000
6755.92    27664.010000
6757.55    27908.610000
6759.17    28105.100000
6760.79    27846.920000
6762.42    27804.840000
6764.04    27960.920000
6765.67    28340.280000
6767.29    28701.070000
6768.91    28465.980000
6770.54    28203.920000
6772.16    27984.680000
6773.79    28141.410000
6775.41    28092.140000
6777.03    27990.020000
6778.66    27831.590000
6780.28    28061.680000
6781.91    28281.260000
6783.53    28414.550000
6785.15    28294.290000
6786.78    27776.170000
6788.40    27416.350000
6790.03    27094.470000
6791.65    27048.580000
6793.27    27022.920000
6794.90    26958.110000
6796.52    26826.250000
6798.15    26824.000000
6799.77    27022.360000
6801.40    27146.690000
6803.02    27193.610000
6804.64    26812.340000
6806.27    26913.690000
6807.89    27051.340000
6809.52    27320.330000
6811.14    27084.700000
6812.76    27204.900000
6814.39    27262.770000
6816.01    27182.340000
6817.64    27034.510000
6819.26    27025.070000
6820.88    27038.480000
6822.51    27223.270000
6824.13    26900.500000
6825.76    27035.910000
6827.38    27359.630000
6829.00    28242.260000
6830.63    28279.020000
6832.25    28038.490000
6833.88    27585.190000
6835.50    26892.720000
6837.12    26836.870000
6838.75    26717.470000
6840.37    26548.610000
6842.00    26588.430000
6843.62    26699.890000
6845.24    26686.360000
6846.87    26540.730000
6848.49    26673.470000
6850.12    26562.020000
6851.74    26427.580000
6853.36    26347.390000
6854.99    26571.520000
6856.61    26672.880000
6858.24    26745.810000
6859.86    26902.530000
6861.48    27885.270000
6863.11    27818.150000
6864.73    27256.130000
6866.36    25571.390000
6867.98    24108.550000
6869.60    24345.340000
6871.23    25283.650000
6872.85    25809.220000
6874.48    26213.880000
6876.10    26078.730000
6877.73    25500.000000
6879.35    26152.060000
6880.97    26528.170000
6882.60    26892.960000
6884.22    27266.870000
6885.85    26246.450000
6887.47    26148.110000
6889.09    25776.260000
6890.72    24842.430000
6892.34    25423.520000
6893.97    25148.420000
6895.59    25015.930000
6897.21    25778.410000
6898.84    25972.510000
6900.46    25729.940000
6902.09    25434.480000
6903.71    25592.330000
6905.33    24881.610000
6906.96    24781.150000
6908.58    24879.490000
6910.21    24902.340000
6911.83    25657.230000
6913.45    26185.960000
6915.08    26503.950000
6916.70    25043.030000
6918.33    24953.150000
6919.95    25177.850000
6921.57    25754.010000
6923.20    25789.690000
6924.82    25504.090000
6926.45    25020.630000
6928.07    24232.180000
6929.69    24370.500000
6931.32    24444.380000
6932.94    24489.770000
6934.57    24566.560000
6936.19    24750.970000
6937.81    24624.640000
6939.44    24422.850000
6941.06    24345.070000
6942.69    24433.130000
6944.31    24485.630000
6945.94    24572.560000
6947.56    25332.970000
6949.18    25475.830000
6950.81    25681.370000
6952.43    25860.670000
6954.06    25164.110000
6955.68    24693.390000
6957.30    24528.790000
6958.93    24658.710000
6960.55    24664.760000
6962.18    25235.030000
6963.80    25536.250000
6965.42    25513.440000
6967.05    25873.280000
6968.67    26030.210000
6970.30    25957.540000
6971.92    25441.770000
6973.54    25773.430000
6975.17    26057.520000
6976.79    26216.290000
6978.42    26023.660000
6980.04    25333.440000
6981.66    25172.680000
6983.29    25162.940000
6984.91    25418.220000
6986.54    24865.300000
6988.16    24352.430000
6989.78    23832.280000
6991.41    24057.720000
6993.03    24288.640000
6994.66    24524.520000
6996.28    24796.670000
6997.90    24798.310000
6999.53    24776.230000
7001.15    24730.040000
7002.78    24714.270000
7004.40    24263.400000
7006.02    24446.050000
7007.65    24668.150000
7009.27    25003.600000
7010.90    24984.570000
7012.52    25061.570000
7014.15    25018.520000
7015.77    24595.170000
7017.39    24603.320000
7019.02    24675.360000
7020.64    24698.430000
7022.27    24478.180000
7023.89    24341.370000
7025.51    24025.020000
7027.14    23654.170000
7028.76    24061.770000
7030.39    24336.500000
7032.01    24579.800000
7033.63    24768.480000
7035.26    24699.580000
7036.88    24569.090000
7038.51    24533.380000
7040.13    24594.010000
7041.75    24280.200000
7043.38    24672.970000
7045.00    25016.190000
7046.63    25311.980000
7048.25    24784.400000
7049.87    24549.470000
7051.50    24351.150000
7053.12    24254.150000
7054.75    23695.650000
7056.37    23868.230000
7057.99    24175.160000
7059.62    24425.500000
7061.24    24182.600000
7062.87    23983.800000
7064.49    23793.810000
7066.11    23948.610000
7067.74    23933.110000
7069.36    24071.290000
7070.99    24262.500000
7072.61    24308.250000
7074.23    24389.510000
7075.86    24474.950000
7077.48    24570.630000
7079.11    24579.480000
7080.73    24560.250000
7082.35    24502.570000
7083.98    24444.800000
7085.60    24427.980000
7087.23    24606.590000
7088.85    24651.680000
7090.48    24364.940000
7092.10    25015.270000
7093.72    25111.340000
7095.35    25057.870000
7096.97    24872.270000
7098.60    24444.570000
7100.22    24300.180000
7101.84    24168.500000
7103.47    23608.280000
7105.09    23446.790000
7106.72    23337.830000
7108.34    23209.330000
7109.96    22989.350000
7111.59    22517.820000
7113.21    22250.400000
7114.84    22148.880000
7116.46    22352.710000
7118.08    22390.860000
7119.71    22329.910000
7121.33    22190.040000
7122.96    22202.950000
7124.58    22301.770000
7126.20    22455.610000
7127.83    22816.170000
7129.45    22637.950000
7131.08    22542.160000
7132.70    22386.410000
7134.32    22026.700000
7135.95    21988.050000
7137.57    21602.210000
7139.20    21112.560000
7140.82    20778.350000
7142.44    21075.740000
7144.07    21205.950000
7145.69    21208.860000
7147.32    20856.530000
7148.94    20841.800000
7150.56    20623.090000
7152.19    20235.170000
7153.81    20995.030000
7155.44    20634.930000
7157.06    20443.890000
7158.69    20519.390000
7160.31    20637.390000
7161.93    20525.520000
7163.56    20360.060000
7165.18    20121.280000
7166.81    19478.110000
7168.43    19736.770000
7170.05    19876.930000
7171.68    19220.780000
7173.30    19781.720000
7174.93    19946.350000
7176.55    19962.610000
7178.17    19833.200000
7179.80    19043.540000
7181.42    18894.940000
7183.05    18989.900000
7184.67    19142.520000
7186.29    19176.290000
7187.92    19368.480000
7189.54    19645.430000
7191.17    19622.750000
7192.79    19433.640000
7194.41    19287.800000
7196.04    19168.560000
7197.66    19629.820000
7199.29    19518.120000
7200.91    19366.010000
7202.53    19228.620000
7204.16    18716.670000
7205.78    19002.500000
7207.41    19223.190000
7209.03    18986.460000
7210.65    18376.390000
7212.28    18679.620000
7213.90    19110.810000
7215.53    19211.970000
7217.15    18678.010000
7218.77    18625.660000
7220.40    18702.340000
7222.02    18463.410000
7223.65    18501.200000
7225.27    18577.230000
7226.90    18637.360000
7228.52    18212.290000
7230.14    17471.100000
7231.77    16715.640000
7233.39    15850.940000
7235.02    15757.210000
7236.64    16232.460000
7238.26    16735.120000
7239.89    17358.650000
7241.51    17051.480000
7243.14    16902.690000
7244.76    16974.680000
7246.38    17665.550000
7248.01    16977.360000
7249.63    16438.240000
7251.26    16011.460000
7252.88    16074.580000
7254.50    16228.060000
7256.13    16380.620000
7257.75    16511.840000
7259.38    16590.680000
7261.00    16194.280000
7262.62    16065.460000
7264.25    16056.900000
7265.87    16220.100000
7267.50    16714.770000
7269.12    17019.680000
7270.74    17188.150000
7272.37    17035.800000
7273.99    17086.970000
7275.62    17048.130000
7277.24    16893.360000
7278.86    17070.520000
7280.49    17597.090000
7282.11    18144.920000
7283.74    18797.580000
7285.36    18368.240000
7286.98    17571.760000
7288.61    16806.800000
7290.23    16454.170000
7291.86    16723.050000
7293.48    16858.540000
7295.10    16973.430000
7296.73    17341.330000
7298.35    17398.060000
7299.98    17276.690000
7301.60    17026.670000
7303.23    16810.660000
7304.85    17066.680000
7306.47    17279.240000
7308.10    17484.770000
7309.72    17204.180000
7311.35    17156.300000
7312.97    17394.190000
7314.59    18078.210000
7316.22    18165.470000
7317.84    17912.530000
7319.47    17841.520000
7321.09    18268.490000
7322.71    18296.350000
7324.34    18240.070000
7325.96    18260.080000
7327.59    18662.630000
7329.21    18627.770000
7330.83    18254.710000
7332.46    17834.240000
7334.08    17820.310000
7335.71    18016.430000
7337.33    18393.930000
7338.95    18861.280000
7340.58    19549.560000
7342.20    19125.230000
7343.83    18855.290000
7345.45    18619.580000
7347.07    18193.940000
7348.70    18075.050000
7350.32    18035.840000
7351.95    18076.780000
7353.57    18370.560000
7355.19    18619.080000
7356.82    18796.250000
7358.44    18920.890000
7360.07    18802.080000
7361.69    18682.270000
7363.31    18568.930000
7364.94    18533.380000
7366.56    18672.120000
7368.19    18877.620000
7369.81    19052.670000
7371.44    19138.260000
7373.06    19071.320000
7374.68    19021.020000
7376.31    18921.890000
7377.93    18536.370000
7379.56    18493.690000
7381.18    18496.560000
7382.80    18487.560000
7384.43    18194.640000
7386.05    18519.800000
7387.68    18788.910000
7389.30    19046.090000
7390.92    19081.330000
7392.55    19324.320000
7394.17    19378.830000
7395.80    19173.310000
7397.42    18833.170000
7399.04    18854.500000
7400.67    18965.600000
7402.29    19296.400000
7403.92    19051.050000
7405.54    18760.500000
7407.16    18461.880000
7408.79    18255.410000
7410.41    18175.080000
7412.04    18213.050000
7413.66    18260.630000
7415.28    18312.770000
7416.91    18253.030000
7418.53    18415.500000
7420.16    18663.190000
7421.78    18528.960000
7423.40    18775.890000
7425.03    19013.210000
7426.65    19269.900000
7428.28    19193.870000
7429.90    19293.580000
7431.52    19262.620000
7433.15    19108.310000
7434.77    18925.130000
7436.40    18836.320000
7438.02    18805.110000
7439.65    18948.110000
7441.27    18833.820000
7442.89    18525.700000
7444.52    18218.200000
7446.14    18104.930000
7447.77    18187.570000
7449.39    18250.320000
7451.01    18259.660000
7452.64    18076.990000
7454.26    18245.520000
7455.89    18377.900000
7457.51    18482.570000
7459.13    18497.120000
7460.76    17870.380000
7462.38    17816.730000
7464.01    18184.680000
7465.63    18274.440000
7467.25    18159.580000
7468.88    18100.370000
7470.50    18121.130000
7472.12    18449.520000
7473.75    18144.910000
7475.37    18002.400000
7477.00    18314.340000
7478.62    18386.890000
7480.24    18504.610000
7481.87    18548.880000
7483.49    18423.090000
7485.12    17992.570000
7486.74    18120.320000
7488.37    18272.010000
7489.99    17833.820000
7491.61    18145.040000
7493.24    18202.810000
7494.86    18137.590000
7496.49    18153.900000
7498.11    17893.150000
7499.73    17981.690000
7501.36    18287.800000
7502.98    18012.430000
7504.61    18010.450000
7506.23    17941.950000
7507.85    17784.970000
7509.48    17983.270000
7511.10    17958.680000
7512.73    17792.480000
7514.35    17417.470000
7515.98    17602.290000
7517.60    18066.670000
7519.22    18256.490000
7520.85    17616.760000
7522.47    18361.780000
7524.10    18644.650000
7525.72    18745.810000
7527.34    18469.320000
7528.97    18042.520000
7530.59    17841.250000
7532.22    17700.830000
7533.84    17639.850000
7535.46    17791.980000
7537.09    17920.560000
7538.71    17993.190000
7540.34    17394.780000
7541.96    17586.720000
7543.58    17879.120000
7545.21    18300.410000
7546.83    17950.020000
7548.45    17739.600000
7550.08    17614.040000
7551.70    17665.660000
7553.33    17319.600000
7554.95    17592.380000
7556.57    17993.100000
7558.20    18676.090000
7559.82    18355.580000
7561.45    18188.340000
7563.07    18160.890000
7564.70    18713.570000
7566.32    19079.160000
7567.94    19029.440000
7569.57    18894.280000
7571.19    19260.190000
7572.82    18817.800000
7574.44    18163.010000
7576.06    17370.860000
7577.69    17602.620000
7579.31    17506.440000
7580.94    17351.700000
