#Wavelength     Flux
#[Angstrom]   [Counts]
3913.05     0.000000
3914.68     0.000000
3916.32     0.000000
3917.95     0.000000
3919.59     0.000000
3921.23     0.000000
3922.86     0.000000
3924.50     0.000000
3926.14     0.000000
3927.77     0.000000
3929.41     0.000000
3931.04     0.000000
3932.68     0.000000
3934.32     0.000000
3935.95     0.000000
3937.59     0.000000
3939.22     0.000000
3940.86     0.000000
3942.50     0.000000
3944.13     0.000000
3945.77     0.000000
3947.41     0.000000
3949.04     0.000000
3950.68     0.000000
3952.31     0.000000
3953.95     0.000000
3955.59     0.000000
3957.22    3732.606000
3958.86    1355.449000
3960.49    1452.934000
3962.13    1683.880000
3963.77    1680.889000
3965.40    1473.643000
3967.04    1436.497000
3968.68    1322.644000
3970.31    1384.275000
3971.95    1547.045000
3973.59    1558.254000
3975.22    1500.884000
3976.86    1202.436000
3978.49    1135.802000
3980.13    989.353400
3981.77    1095.753000
3983.40    997.997900
3985.04    955.626100
3986.67    946.367700
3988.31    1109.113000
3989.95    1409.492000
3991.58    1367.882000
3993.22    1123.447000
3994.86    1516.026000
3996.49    1366.289000
3998.13    1230.497000
3999.76    1239.106000
4001.40    1368.306000
4003.04    1094.139000
4004.67    1672.034000
4006.31    1631.870000
4007.95    1417.896000
4009.58    1471.708000
4011.22    1124.811000
4012.85    1226.461000
4014.49    910.338300
4016.13    907.743300
4017.76    1046.378000
4019.40    835.446800
4021.03    837.079800
4022.67    1027.731000
4024.31    971.835400
4025.94    1123.140000
4027.58    1330.377000
4029.22    1114.817000
4030.85    1654.814000
4032.49    1548.910000
4034.12    1563.844000
4035.76    1598.623000
4037.40    1402.733000
4039.03    1384.135000
4040.67    1569.594000
4042.30    1638.919000
4043.94    1574.465000
4045.58    1687.714000
4047.21    1799.866000
4048.85    1899.567000
4050.49    1298.428000
4052.12    1883.601000
4053.76    1509.138000
4055.39    1788.434000
4057.03    1604.179000
4058.67    1778.414000
4060.30    1939.182000
4061.94    1738.829000
4063.58    1841.478000
4065.21    1808.255000
4066.85    2216.488000
4068.49    1843.345000
4070.12    1937.401000
4071.76    1928.026000
4073.39    1953.810000
4075.03    1611.916000
4076.67    1737.003000
4078.30    1950.846000
4079.94    2199.187000
4081.57    1796.476000
4083.21    1874.602000
4084.85    1700.140000
4086.48    1706.909000
4088.12    1742.896000
4089.76    2141.471000
4091.39    2093.762000
4093.03    1811.797000
4094.66    1666.048000
4096.30    1451.140000
4097.94    1665.274000
4099.57    2141.425000
4101.21    1705.757000
4102.85    1422.835000
4104.48    1932.470000
4106.12    1917.238000
4107.75    2185.901000
4109.39    1965.136000
4111.03    1842.694000
4112.66    1797.940000
4114.30    1634.124000
4115.94    1940.795000
4117.57    1932.935000
4119.21    1567.623000
4120.84    1588.268000
4122.48    1761.229000
4124.12    1541.906000
4125.75    1938.845000
4127.39    1932.014000
4129.02    2079.090000
4130.66    1655.817000
4132.30    2651.748000
4133.93    1564.826000
4135.57    1722.126000
4137.20    2208.914000
4138.84    1919.169000
4140.48    1729.383000
4142.11    2032.510000
4143.75    1948.084000
4145.39    1799.780000
4147.02    1827.305000
4148.66    1859.713000
4150.30    1882.014000
4151.93    1788.259000
4153.57    1623.131000
4155.20    1248.554000
4156.84    1672.798000
4158.48    1538.968000
4160.11    1814.105000
4161.75    1815.182000
4163.39    1801.858000
4165.02    1474.614000
4166.66    1787.842000
4168.29    1928.466000
4169.93    2009.305000
4171.56    1785.507000
4173.20    1990.835000
4174.84    1985.855000
4176.47    1968.110000
4178.11    1888.907000
4179.75    1630.579000
4181.38    1831.046000
4183.02    1823.684000
4184.65    1918.496000
4186.29    1941.052000
4187.93    1991.349000
4189.56    1870.862000
4191.20    1878.830000
4192.84    1576.085000
4194.47    1704.720000
4196.11    1992.457000
4197.74    1804.585000
4199.38    2040.365000
4201.02    2087.365000
4202.65    1966.359000
4204.29    1899.271000
4205.93    1831.665000
4207.56    1763.543000
4209.20    1804.257000
4210.83    1832.389000
4212.47    2008.494000
4214.11    1939.140000
4215.74    2126.535000
4217.38    1923.153000
4219.02    1819.061000
4220.65    1987.073000
4222.29    2068.055000
4223.92    1995.185000
4225.56    1739.687000
4227.20    1814.425000
4228.83    1655.636000
4230.47    1846.983000
4232.10    1772.832000
4233.74    1617.121000
4235.38    1724.008000
4237.01    1875.653000
4238.65    1944.698000
4240.29    1933.119000
4241.92    1860.207000
4243.56    1875.143000
4245.19    2070.266000
4246.83    1821.729000
4248.47    1737.699000
4250.10    1847.182000
4251.74    1807.272000
4253.38    2041.173000
4255.01    1831.207000
4256.65    1440.055000
4258.28    1730.786000
4259.92    2005.252000
4261.56    2011.911000
4263.19    2074.021000
4264.83    2205.991000
4266.47    1820.782000
4268.10    1939.550000
4269.74    2102.710000
4271.37    1948.977000
4273.01    1888.455000
4274.65    2044.338000
4276.28    1953.575000
4277.92    1734.881000
4279.56    1824.861000
4281.19    2047.212000
4282.83    1823.790000
4284.46    1737.780000
4286.10    1619.103000
4287.74    1782.722000
4289.37    1904.949000
4291.01    1906.886000
4292.65    1933.825000
4294.28    1993.351000
4295.92    2004.627000
4297.55    2022.649000
4299.19    1820.950000
4300.83    1654.370000
4302.46    1764.546000
4304.10    1891.059000
4305.73    1927.453000
4307.37    1933.267000
4309.01    1978.813000
4310.64    1753.260000
4312.28    1818.486000
4313.92    2056.361000
4315.55    1990.745000
4317.19    1975.221000
4318.82    1987.559000
4320.46    2047.752000
4322.10    2222.329000
4323.73    1962.719000
4325.37    1688.359000
4327.01    1778.226000
4328.64    1890.743000
4330.28    1852.651000
4331.91    1682.695000
4333.55    1790.035000
4335.19    1971.713000
4336.82    1736.586000
4338.46    1648.436000
4340.10    1770.335000
4341.73    1842.557000
4343.37    1802.127000
4345.00    1829.855000
4346.64    1853.395000
4348.28    1844.741000
4349.91    1938.118000
4351.55    2053.937000
4353.19    1876.893000
4354.82    1677.326000
4356.46    1604.641000
4358.09    1857.553000
4359.73    1923.516000
4361.36    1723.747000
4363.00    1764.260000
4364.64    1576.132000
4366.27    1610.325000
4367.91    1994.406000
4369.55    2152.121000
4371.18    1936.598000
4372.82    1982.201000
4374.45    2048.831000
4376.09    2109.340000
4377.73    2259.392000
4379.36    2009.293000
4381.00    2064.798000
4382.64    2047.207000
4384.27    2011.079000
4385.91    2189.363000
4387.55    2195.045000
4389.18    2084.351000
4390.82    1806.391000
4392.45    1829.171000
4394.09    1933.904000
4395.73    1931.750000
4397.36    1735.074000
4399.00    1819.133000
4400.63    2047.666000
4402.27    1923.831000
4403.91    1887.916000
4405.54    1925.189000
4407.18    1840.653000
4408.81    1950.951000
4410.45    2040.299000
4412.09    1936.326000
4413.72    2083.500000
4415.36    2069.438000
4417.00    1939.204000
4418.63    2060.240000
4420.27    2316.461000
4421.90    2239.628000
4423.54    2218.763000
4425.18    2057.952000
4426.81    1997.753000
4428.45    1932.563000
4430.09    2121.557000
4431.72    2272.108000
4433.36    2186.599000
4434.99    2175.982000
4436.63    1968.759000
4438.27    1970.731000
4439.90    1788.511000
4441.54    1867.017000
4443.18    2033.642000
4444.81    1876.883000
4446.45    1884.521000
4448.08    1974.356000
4449.72    2085.408000
4451.36    2157.042000
4452.99    2041.257000
4454.63    2126.764000
4456.27    2254.783000
4457.90    2224.867000
4459.54    2096.246000
4461.17    1784.854000
4462.81    2091.681000
4464.45    2132.536000
4466.08    1988.937000
4467.72    2226.672000
4469.35    2296.660000
4470.99    2072.047000
4472.63    2061.239000
4474.26    2028.946000
4475.90    2125.226000
4477.54    2104.745000
4479.17    2332.753000
4480.81    2315.053000
4482.44    2077.777000
4484.08    2308.740000
4485.72    2720.335000
4487.35    2050.708000
4488.99    2116.636000
4490.62    2329.452000
4492.26    2241.292000
4493.90    2308.448000
4495.53    2318.378000
4497.17    2281.465000
4498.81    2208.414000
4500.44    2138.262000
4502.08    2438.496000
4503.72    2345.879000
4505.35    2100.143000
4506.99    2149.504000
4508.62    2040.099000
4510.26    2353.148000
4511.90    2319.702000
4513.53    2221.143000
4515.17    2165.318000
4516.81    2200.541000
4518.44    2102.826000
4520.08    2070.372000
4521.71    2282.316000
4523.35    2214.067000
4524.99    2087.809000
4526.62    2222.494000
4528.26    2426.763000
4529.90    2448.516000
4531.53    2418.165000
4533.17    2270.846000
4534.80    2330.396000
4536.44    2448.496000
4538.08    2360.648000
4539.71    2424.294000
4541.35    2457.490000
4542.98    2417.906000
4544.62    2288.642000
4546.26    2219.875000
4547.89    2117.179000
4549.53    2304.378000
4551.17    2403.618000
4552.80    2352.360000
4554.44    2448.931000
4556.07    2362.440000
4557.71    2371.503000
4559.35    2426.222000
4560.98    2416.768000
4562.62    2391.606000
4564.26    2533.318000
4565.89    2630.556000
4567.53    2627.874000
4569.16    2379.852000
4570.80    2147.916000
4572.44    2525.975000
4574.07    2689.609000
4575.71    2647.003000
4577.35    2560.422000
4578.98    2420.565000
4580.62    2419.712000
4582.25    2352.867000
4583.89    2405.753000
4585.53    2382.076000
4587.16    2263.948000
4588.80    2498.112000
4590.43    2548.701000
4592.07    2450.089000
4593.71    2270.368000
4595.34    2350.661000
4596.98    2507.009000
4598.61    2318.121000
4600.25    2429.214000
4601.89    2375.666000
4603.52    2473.293000
4605.16    2504.616000
4606.80    2280.690000
4608.43    2220.408000
4610.07    2343.012000
4611.70    2364.289000
4613.34    2230.720000
4614.98    2340.507000
4616.61    2370.260000
4618.25    2637.892000
4619.89    2522.565000
4621.52    2346.367000
4623.16    2198.867000
4624.79    2362.035000
4626.43    2387.999000
4628.07    2428.715000
4629.70    2614.918000
4631.34    2555.318000
4632.98    2616.567000
4634.61    2661.705000
4636.25    2527.556000
4637.88    2429.370000
4639.52    2546.975000
4641.16    2372.086000
4642.79    2279.794000
4644.43    2286.782000
4646.06    2661.102000
4647.70    2639.123000
4649.34    2592.881000
4650.97    2480.048000
4652.61    2387.508000
4654.25    2622.161000
4655.88    2607.778000
4657.52    2477.080000
4659.15    2265.187000
4660.79    2555.604000
4662.43    2603.100000
4664.06    2615.942000
4665.70    2603.980000
4667.34    2604.078000
4668.97    2465.437000
4670.61    2584.594000
4672.24    2506.399000
4673.88    2474.272000
4675.52    2583.826000
4677.15    2518.690000
4678.79    2511.954000
4680.43    2601.666000
4682.06    2471.279000
4683.70    2592.334000
4685.33    2450.633000
4686.97    2572.137000
4688.61    2673.171000
4690.24    2593.703000
4691.88    2684.365000
4693.52    2513.850000
4695.15    2741.513000
4696.79    2616.586000
4698.42    2499.205000
4700.06    2469.933000
4701.70    2530.555000
4703.33    2408.543000
4704.97    2329.799000
4706.60    2463.048000
4708.24    2497.154000
4709.88    2323.116000
4711.51    2434.340000
4713.15    2378.108000
4714.79    2614.418000
4716.42    2637.026000
4718.06    2633.170000
4719.69    2500.092000
4721.33    2449.479000
4722.97    2557.352000
4724.60    2584.070000
4726.24    2345.628000
4727.88    2417.350000
4729.51    2317.893000
4731.15    2280.746000
4732.78    2402.599000
4734.42    2307.741000
4736.06    2485.178000
4737.69    2557.697000
4739.33    2489.058000
4740.97    2218.886000
4742.60    2414.763000
4744.24    2548.686000
4745.87    2284.646000
4747.51    2534.088000
4749.15    2505.313000
4750.78    2511.215000
4752.42    2436.510000
4754.06    2352.622000
4755.69    2503.186000
4757.33    2408.515000
4758.96    2222.367000
4760.60    2439.987000
4762.24    2346.333000
4763.87    2336.845000
4765.51    2284.916000
4767.15    2149.454000
4768.78    2254.240000
4770.42    2375.082000
4772.05    2386.898000
4773.69    2412.633000
4775.33    2523.833000
4776.96    2508.620000
4778.60    2370.097000
4780.23    2397.226000
4781.87    2425.266000
4783.51    2450.708000
4785.14    2562.927000
4786.78    2506.095000
4788.41    2314.251000
4790.05    2122.275000
4791.69    2350.054000
4793.32    2530.917000
4794.96    2395.989000
4796.60    2432.885000
4798.23    2429.123000
4799.87    2457.569000
4801.51    2499.465000
4803.14    2387.599000
4804.78    2456.011000
4806.41    2490.444000
4808.05    2536.310000
4809.69    2382.816000
4811.32    2510.814000
4812.96    2526.519000
4814.59    2413.894000
4816.23    2638.191000
4817.87    2309.058000
4819.50    2368.959000
4821.14    2398.302000
4822.77    2448.110000
4824.41    2354.145000
4826.05    2311.044000
4827.68    2504.751000
4829.32    2458.737000
4830.96    2316.072000
4832.59    2281.191000
4834.23    2328.236000
4835.86    2289.724000
4837.50    2515.574000
4839.14    2687.245000
4840.77    2529.689000
4842.41    2678.316000
4844.05    2599.521000
4845.68    2439.173000
4847.32    2444.626000
4848.95    2260.469000
4850.59    2317.958000
4852.23    2339.626000
4853.86    2672.857000
4855.50    2581.693000
4857.14    2366.653000
4858.77    2470.780000
4860.41    2378.080000
4862.04    2453.291000
4863.68    2481.046000
4865.32    2513.790000
4866.95    2556.608000
4868.59    2497.469000
4870.23    2390.736000
4871.86    2502.442000
4873.50    2433.193000
4875.13    2504.480000
4876.77    2401.272000
4878.41    2376.185000
4880.04    2562.176000
4881.68    2574.672000
4883.31    2443.893000
4884.95    2554.297000
4886.59    2609.008000
4888.22    2520.634000
4889.86    2465.824000
4891.50    2518.217000
4893.13    2618.470000
4894.77    2351.579000
4896.40    2498.824000
4898.04    2572.659000
4899.68    2412.465000
4901.31    2408.901000
4902.95    2177.787000
4904.59    2334.130000
4906.22    2331.822000
4907.86    2157.375000
4909.49    2171.948000
4911.13    2313.762000
4912.77    2269.272000
4914.40    2267.384000
4916.04    2349.114000
4917.68    2178.413000
4919.31    1980.711000
4920.95    2170.084000
4922.58    2224.544000
4924.22    2357.187000
4925.86    2258.096000
4927.49    2061.875000
4929.13    2109.616000
4930.77    2185.751000
4932.40    2429.289000
4934.04    2261.770000
4935.67    2217.080000
4937.31    2127.633000
4938.95    2303.390000
4940.58    2354.650000
4942.22    2493.976000
4943.85    2243.022000
4945.49    2344.363000
4947.13    2303.938000
4948.76    2442.453000
4950.40    2479.252000
4952.04    2265.741000
4953.67    2337.822000
4955.31    2326.013000
4956.94    2361.743000
4958.58    2349.239000
4960.22    2429.289000
4961.85    2486.937000
4963.49    2350.981000
4965.12    2464.798000
4966.76    2580.288000
4968.40    2506.001000
4970.03    2341.318000
4971.67    2480.490000
4973.31    2420.273000
4974.94    2445.667000
4976.58    2471.594000
4978.22    2355.513000
4979.85    2390.610000
4981.49    2202.163000
4983.12    2053.648000
4984.76    2211.508000
4986.40    2296.342000
4988.03    2316.188000
4989.67    2437.897000
4991.31    2336.779000
4992.94    2376.830000
4994.58    2581.190000
4996.21    2471.877000
4997.85    2445.219000
4999.49    2171.976000
5001.12    2329.807000
5002.76    2440.040000
5004.39    2234.249000
5006.03    2476.524000
5007.67    2538.137000
5009.30    2377.396000
5010.94    2440.008000
5012.57    2462.923000
5014.21    2430.755000
5015.85    2566.389000
5017.48    2476.409000
5019.12    2401.634000
5020.76    2239.240000
5022.39    2309.926000
5024.03    2261.615000
5025.66    2184.257000
5027.30    2324.046000
5028.94    2436.877000
5030.57    2244.934000
5032.21    2359.303000
5033.85    2333.801000
5035.48    2409.294000
5037.12    2433.058000
5038.75    2363.576000
5040.39    2364.852000
5042.03    2277.771000
5043.66    2161.041000
5045.30    2188.358000
5046.94    2259.471000
5048.57    2218.651000
5050.21    2286.497000
5051.84    2373.859000
5053.48    2294.517000
5055.12    2378.392000
5056.75    2110.062000
5058.39    2100.027000
5060.02    2353.645000
5061.66    2327.285000
5063.30    2226.148000
5064.93    2277.482000
5066.57    2271.476000
5068.21    2245.734000
5069.84    2424.903000
5071.48    2431.565000
5073.11    2342.673000
5074.75    2378.040000
5076.39    2346.576000
5078.02    2209.024000
5079.66    2203.656000
5081.30    2216.514000
5082.93    2051.568000
5084.57    2197.103000
5086.20    2384.865000
5087.84    2185.902000
5089.48    2085.921000
5091.11    2249.164000
5092.75    2271.778000
5094.39    2241.507000
5096.02    2164.731000
5097.66    2251.938000
5099.29    2227.302000
5100.93    2301.456000
5102.57    2250.936000
5104.20    2371.758000
5105.84    2175.420000
5107.48    2244.861000
5109.11    2362.416000
5110.75    2263.052000
5112.38    2289.470000
5114.02    2379.397000
5115.66    2271.488000
5117.29    2338.565000
5118.93    2416.563000
5120.56    2340.606000
5122.20    2303.346000
5123.84    2354.182000
5125.47    2401.485000
5127.11    2428.303000
5128.75    2292.539000
5130.38    2373.043000
5132.02    2311.986000
5133.65    2213.136000
5135.29    2251.089000
5136.93    2261.165000
5138.56    2370.546000
5140.20    2463.253000
5141.84    2172.760000
5143.47    2124.954000
5145.11    2118.623000
5146.74    2246.367000
5148.38    2309.122000
5150.02    2109.754000
5151.65    2136.056000
5153.29    2010.051000
5154.93    2196.708000
5156.56    2347.006000
5158.20    2189.468000
5159.83    2423.403000
5161.47    2280.994000
5163.11    2357.998000
5164.74    2287.036000
5166.38    2340.145000
5168.02    2110.423000
5169.65    2244.650000
5171.29    2356.588000
5172.92    2337.384000
5174.56    2184.437000
5176.20    1999.965000
5177.83    2158.086000
5179.47    2198.877000
5181.10    2471.079000
5182.74    2166.207000
5184.38    2212.523000
5186.01    2073.209000
5187.65    2074.920000
5189.29    2063.010000
5190.92    2256.581000
5192.56    2332.743000
5194.19    2159.211000
5195.83    2243.391000
5197.47    2108.612000
5199.10    2186.584000
5200.74    2311.749000
5202.38    2050.730000
5204.01    2379.344000
5205.65    2176.889000
5207.28    1991.875000
5208.92    1980.388000
5210.56    2189.692000
5212.19    2180.258000
5213.83    2148.766000
5215.47    2192.885000
5217.10    2184.873000
5218.74    2059.925000
5220.37    2080.481000
5222.01    2122.356000
5223.65    2352.564000
5225.28    2196.373000
5226.92    2216.063000
5228.56    2153.234000
5230.19    2136.723000
5231.83    2039.459000
5233.46    1902.974000
5235.10    1820.474000
5236.73    1863.390000
5238.37    1817.558000
5240.01    1905.660000
5241.64    2057.408000
5243.28    2039.563000
5244.92    2166.454000
5246.55    2204.194000
5248.19    1991.203000
5249.82    1855.188000
5251.46    1899.165000
5253.10    2098.934000
5254.73    1944.945000
5256.37    2147.376000
5258.01    2277.562000
5259.64    2111.760000
5261.28    2203.888000
5262.91    2210.763000
5264.55    2190.649000
5266.19    2247.532000
5267.82    2302.960000
5269.46    2316.664000
5271.10    2187.079000
5272.73    2005.121000
5274.37    1973.900000
5276.00    2116.988000
5277.64    1979.171000
5279.28    2036.420000
5280.91    2129.777000
5282.55    2192.124000
5284.19    2222.390000
5285.82    2248.079000
5287.46    2424.304000
5289.09    2375.158000
5290.73    2232.581000
5292.37    2222.365000
5294.00    2096.616000
5295.64    2099.993000
5297.27    2154.138000
5298.91    2267.864000
5300.55    2274.983000
5302.18    2078.271000
5303.82    2338.808000
5305.46    2440.692000
5307.09    2369.750000
5308.73    2401.575000
5310.36    2437.783000
5312.00    2397.106000
5313.64    2303.104000
5315.27    2165.475000
5316.91    2227.781000
5318.55    2049.961000
5320.18    2278.384000
5321.82    2140.899000
5323.45    2288.574000
5325.09    2279.129000
5326.73    2328.052000
5328.36    2260.537000
5330.00    2375.311000
5331.64    2077.227000
5333.27    2180.885000
5334.91    1995.552000
5336.54    2048.263000
5338.18    2031.584000
5339.82    2177.716000
5341.45    2167.467000
5343.09    2276.766000
5344.73    2222.111000
5346.36    2424.228000
5348.00    2365.049000
5349.63    2283.851000
5351.27    2276.961000
5352.91    2383.146000
5354.54    2205.654000
5356.18    2319.028000
5357.81    2425.853000
5359.45    2376.523000
5361.09    2272.743000
5362.72    2390.729000
5364.36    2366.080000
5366.00    2254.225000
5367.63    2221.734000
5369.27    2199.947000
5370.90    2334.744000
5372.54    2283.300000
5374.18    2374.805000
5375.81    2314.020000
5377.45    2304.842000
5379.09    2286.457000
5380.72    2383.794000
5382.36    2401.405000
5383.99    2240.451000
5385.63    2191.936000
5387.27    2201.780000
5388.90    2295.743000
5390.54    2358.409000
5392.18    2364.003000
5393.81    2241.369000
5395.45    2079.016000
5397.08    2185.952000
5398.72    2209.246000
5400.36    2084.776000
5401.99    2307.786000
5403.63    2292.455000
5405.27    2424.535000
5406.90    2460.382000
5408.54    2226.412000
5410.17    2362.484000
5411.81    2363.003000
5413.45    2355.738000
5415.08    2163.504000
5416.72    2481.783000
5418.35    2308.965000
5419.99    2353.304000
5421.63    2396.903000
5423.26    2335.514000
5424.90    2350.672000
5426.53    2647.257000
5428.17    2428.790000
5429.81    2408.879000
5431.44    2317.166000
5433.08    2271.848000
5434.72    2420.193000
5436.35    2153.842000
5437.99    2213.648000
5439.62    2145.507000
5441.26    2136.058000
5442.90    2213.978000
5444.53    2427.795000
5446.17    2527.343000
5447.81    2514.302000
5449.44    2432.566000
5451.08    2340.193000
5452.72    2350.405000
5454.35    2363.387000
5455.99    2327.531000
5457.62    2379.365000
5459.26    2180.617000
5460.90    2345.390000
5462.53    2383.926000
5464.17    2264.151000
5465.80    2130.890000
5467.44    2060.429000
5469.08    2216.558000
5470.71    2288.956000
5472.35    2209.495000
5473.98    2245.729000
5475.62    2303.940000
5477.26    2299.886000
5478.89    2267.758000
5480.53    2241.294000
5482.17    2319.300000
5483.80    2352.719000
5485.44    2370.115000
5487.07    2362.154000
5488.71    2340.919000
5490.35    2315.370000
5491.98    2266.498000
5493.62    2475.864000
5495.26    2466.884000
5496.89    2329.915000
5498.53    2385.104000
5500.16    2210.178000
5501.80    2341.229000
5503.44    2282.232000
5505.07    2366.418000
5506.71    2313.779000
5508.35    2492.736000
5509.98    2357.528000
5511.62    2457.761000
5513.25    2633.564000
5514.89    2409.446000
5516.53    2372.317000
5518.16    2421.678000
5519.80    2405.050000
5521.44    2351.557000
5523.07    2288.227000
5524.71    2220.555000
5526.34    2526.027000
5527.98    2313.166000
5529.62    2389.318000
5531.25    2399.814000
5532.89    2410.199000
5534.52    2313.528000
5536.16    2309.296000
5537.80    2363.443000
5539.43    2466.455000
5541.07    2533.189000
5542.71    2368.600000
5544.34    2309.907000
5545.98    2247.622000
5547.61    2276.742000
5549.25    2255.902000
5550.89    2296.307000
5552.52    2321.404000
5554.16    2319.704000
5555.80    2307.605000
5557.43    2372.063000
5559.07    2438.087000
5560.70    2465.748000
5562.34    2421.757000
5563.98    2359.047000
5565.61    2281.537000
5567.25    2196.370000
5568.89    2319.957000
5570.52    2516.053000
5572.16    2970.778000
5573.79    3637.481000
5575.43    3460.494000
5577.07    2399.522000
5578.70    861.301600
5580.34    1213.099000
5581.98    1249.221000
5583.61    2025.392000
5585.25    2296.317000
5586.88    2386.342000
5588.52    2326.242000
5590.16    1071.818000
5591.79    2403.095000
5593.43    2509.589000
5595.06    2369.940000
5596.70    2302.911000
5598.34    2269.449000
5599.97    2338.119000
5601.61    2320.465000
5603.24    2294.250000
5604.88    2253.739000
5606.52    2111.630000
5608.15    2263.161000
5609.79    2374.487000
5611.43    2453.135000
5613.06    2543.398000
5614.70    2520.277000
5616.34    2417.149000
5617.97    2196.420000
5619.61    2241.814000
5621.24    2283.357000
5622.88    2319.770000
5624.52    2362.310000
5626.15    2397.641000
5627.79    2332.162000
5629.43    2232.384000
5631.06    2069.037000
5632.70    2245.488000
5634.33    2288.954000
5635.97    2295.376000
5637.60    2276.211000
5639.24    2305.356000
5640.88    2322.936000
5642.51    2327.245000
5644.15    2277.620000
5645.79    2311.723000
5647.42    2343.579000
5649.06    2361.933000
5650.69    2279.960000
5652.33    2359.896000
5653.97    2327.922000
5655.60    2217.844000
5657.24    2138.212000
5658.88    2036.184000
5660.51    1950.636000
5662.15    1874.295000
5663.78    2302.593000
5665.42    2410.391000
5667.06    2415.875000
5668.69    2295.565000
5670.33    2183.223000
5671.97    2222.242000
5673.60    2204.364000
5675.24    2070.248000
5676.88    2213.173000
5678.51    2307.666000
5680.15    2384.501000
5681.78    2442.473000
5683.42    2390.966000
5685.06    2241.619000
5686.69    2126.824000
5688.33    2233.695000
5689.96    2281.122000
5691.60    2232.153000
5693.24    2174.879000
5694.87    2252.277000
5696.51    2376.650000
5698.15    2353.924000
5699.78    2268.846000
5701.42    2234.922000
5703.05    2263.496000
5704.69    2240.593000
5706.33    2186.127000
5707.96    2224.724000
5709.60    2272.065000
5711.23    2267.843000
5712.87    2220.379000
5714.51    2086.597000
5716.14    2140.801000
5717.78    2108.422000
5719.42    1971.647000
5721.05    2109.525000
5722.69    2153.654000
5724.32    2209.922000
5725.96    2310.744000
5727.60    2181.735000
5729.23    2141.052000
5730.87    2135.219000
5732.51    2198.878000
5734.14    2179.252000
5735.78    2250.363000
5737.41    2303.189000
5739.05    2251.673000
5740.69    2151.192000
5742.32    2088.546000
5743.96    2091.008000
5745.60    2407.435000
5747.23    2439.855000
5748.87    2342.808000
5750.50    2234.524000
5752.14    2524.905000
5753.78    2418.888000
5755.41    2322.641000
5757.05    2222.513000
5758.69    2125.083000
5760.32    2244.496000
5761.96    2332.046000
5763.59    2393.278000
5765.23    2149.627000
5766.87    2165.759000
5768.50    2242.924000
5770.14    2392.532000
5771.77    2382.685000
5773.41    2352.011000
5775.05    2302.760000
5776.68    2231.803000
5778.32    2072.391000
5779.96    2211.576000
5781.59    2293.580000
5783.23    2208.464000
5784.86    2285.162000
5786.50    2215.792000
5788.14    2125.549000
5789.77    2039.960000
5791.41    2138.781000
5793.05    2077.614000
5794.68    2044.097000
5796.32    2325.090000
5797.95    2249.281000
5799.59    2304.062000
5801.23    2369.351000
5802.86    2214.793000
5804.50    2207.458000
5806.14    2157.736000
5807.77    2083.092000
5809.41    2025.087000
5811.04    2171.048000
5812.68    2210.084000
5814.32    2179.052000
5815.95    2342.308000
5817.59    2320.665000
5819.23    2310.363000
5820.86    2310.498000
5822.50    2262.512000
5824.13    2265.997000
5825.77    2313.037000
5827.40    2434.956000
5829.04    2313.613000
5830.68    2267.769000
5832.31    2226.867000
5833.95    2187.257000
5835.59    2198.547000
5837.22    2261.233000
5838.86    2285.213000
5840.49    2191.507000
5842.13    2313.953000
5843.77    2301.780000
5845.40    2287.951000
5847.04    2390.771000
5848.68    2265.568000
5850.31    2275.734000
5851.95    2313.748000
5853.59    2301.583000
5855.22    2129.748000
5856.86    2054.094000
5858.49    2024.000000
5860.13    2109.332000
5861.77    2054.800000
5863.40    2189.381000
5865.04    2431.313000
5866.67    2311.749000
5868.31    2308.627000
5869.95    2276.031000
5871.58    2216.180000
5873.22    2182.294000
5874.85    2155.964000
5876.49    2204.192000
5878.13    2361.417000
5879.76    2207.290000
5881.40    2262.229000
5883.04    2331.223000
5884.67    2418.813000
5886.31    2079.159000
5887.94    2185.204000
5889.58    2279.307000
5891.22    2237.512000
5892.85    2162.077000
5894.49    2233.798000
5896.13    2268.681000
5897.76    2076.814000
5899.40    2045.441000
5901.03    2217.265000
5902.67    2393.717000
5904.31    2300.393000
5905.94    2195.800000
5907.58    2138.294000
5909.22    2096.795000
5910.85    2080.373000
5912.49    2253.291000
5914.12    2235.899000
5915.76    2117.082000
5917.40    2179.264000
5919.03    2155.981000
5920.67    2130.135000
5922.31    2095.566000
5923.94    2185.523000
5925.58    2134.719000
5927.21    2100.920000
5928.85    2084.976000
5930.49    2157.171000
5932.12    2169.051000
5933.76    2143.066000
5935.40    2061.240000
5937.03    2154.866000
5938.67    2189.504000
5940.30    2211.808000
5941.94    2228.848000
5943.58    2027.736000
5945.21    2047.719000
5946.85    2113.808000
5948.48    2232.042000
5950.12    2266.952000
5951.76    2202.763000
5953.39    2150.353000
5955.03    2302.885000
5956.67    2197.457000
5958.30    2089.171000
5959.94    2006.118000
5961.57    2183.355000
5963.21    2166.210000
5964.85    2067.390000
5966.48    1927.925000
5968.12    1926.734000
5969.76    1842.408000
5971.39    1854.219000
5973.03    1927.747000
5974.66    1822.974000
5976.30    1872.390000
5977.94    1989.704000
5979.57    2187.971000
5981.21    2215.315000
5982.85    2087.426000
5984.48    2027.848000
5986.12    2074.660000
5987.75    2027.558000
5989.39    2160.879000
5991.03    2261.284000
5992.66    2283.270000
5994.30    2114.400000
5995.94    2101.824000
5997.57    2096.779000
5999.21    2057.579000
6000.84    2000.339000
6002.48    2039.633000
6004.12    2097.190000
6005.75    2165.526000
6007.39    2010.281000
6009.02    2039.511000
6010.66    2124.720000
6012.30    2206.046000
6013.93    2185.311000
6015.57    2220.561000
6017.20    2265.955000
6018.84    2140.693000
6020.48    2133.683000
6022.11    2130.181000
6023.75    2123.948000
6025.39    2115.926000
6027.02    2164.630000
6028.66    2193.924000
6030.30    2209.942000
6031.93    1949.283000
6033.57    2081.262000
6035.20    2128.488000
6036.84    2064.831000
6038.48    2306.708000
6040.11    2199.242000
6041.75    2116.251000
6043.39    2117.710000
6045.02    2241.162000
6046.66    2209.466000
6048.29    2202.286000
6049.93    2317.583000
6051.56    2289.104000
6053.20    2294.392000
6054.84    2291.503000
6056.48    2250.475000
6058.11    2099.025000
6059.75    2046.866000
6061.38    2046.076000
6063.02    2206.382000
6064.65    2179.457000
6066.29    2121.245000
6067.93    2063.076000
6069.56    2190.018000
6071.20    2081.584000
6072.84    2012.290000
6074.47    1971.512000
6076.11    2253.339000
6077.74    2279.510000
6079.38    2256.562000
6081.02    2191.308000
6082.65    2032.903000
6084.29    2113.649000
6085.93    2111.566000
6087.56    2009.716000
6089.20    2041.823000
6090.84    2115.718000
6092.47    2160.060000
6094.11    2162.620000
6095.74    2074.352000
6097.38    2094.017000
6099.02    2143.637000
6100.65    2252.450000
6102.29    2142.952000
6103.92    2164.783000
6105.56    2195.584000
6107.20    2199.988000
6108.83    2183.276000
6110.47    2165.151000
6112.10    2142.099000
6113.74    2107.701000
6115.38    2143.556000
6117.01    2137.727000
6118.65    2111.471000
6120.29    2066.290000
6121.92    2113.060000
6123.56    2188.096000
6125.19    2273.633000
6126.83    2282.396000
6128.47    2307.247000
6130.10    2271.414000
6131.74    2185.020000
6133.38    2175.760000
6135.01    2264.372000
6136.65    2261.053000
6138.28    2154.867000
6139.92    2203.221000
6141.56    2170.485000
6143.19    2163.113000
6144.83    2205.789000
6146.47    2259.547000
6148.10    2196.208000
6149.74    2154.139000
6151.37    2182.449000
6153.01    2157.048000
6154.65    2182.093000
6156.28    2193.552000
6157.92    2155.022000
6159.56    2045.163000
6161.19    2060.572000
6162.83    2100.937000
6164.46    2136.604000
6166.10    2022.085000
6167.74    2005.536000
6169.37    2026.297000
6171.01    2103.748000
6172.65    2140.350000
6174.28    2110.078000
6175.92    2050.773000
6177.55    2103.107000
6179.19    2145.231000
6180.83    2177.298000
6182.46    2200.201000
6184.10    2184.862000
6185.73    2098.798000
6187.37    2055.031000
6189.01    2047.314000
6190.64    2126.574000
6192.28    2094.304000
6193.92    2019.013000
6195.55    1885.953000
6197.19    2053.404000
6198.82    2216.398000
6200.46    2269.789000
6202.10    2118.042000
6203.73    1974.692000
6205.37    2013.283000
6207.01    2050.513000
6208.64    2035.431000
6210.28    2023.650000
6211.91    2001.815000
6213.55    1996.147000
6215.19    2075.443000
6216.82    2105.697000
6218.46    2067.478000
6220.10    2007.119000
6221.73    1954.858000
6223.37    2026.219000
6225.00    2104.562000
6226.64    2168.023000
6228.28    2032.743000
6229.91    2028.729000
6231.55    2101.363000
6233.19    2211.970000
6234.82    2046.481000
6236.46    2019.298000
6238.09    2050.907000
6239.73    2135.115000
6241.36    1810.925000
6243.00    1788.349000
6244.64    1833.644000
6246.27    1973.687000
6247.91    1960.098000
6249.55    1972.208000
6251.18    1983.391000
6252.82    1997.684000
6254.45    2049.175000
6256.09    2019.684000
6257.73    2000.115000
6259.36    2038.779000
6261.00    2080.564000
6262.64    2085.472000
6264.27    2082.115000
6265.91    2079.616000
6267.55    1940.729000
6269.18    1951.997000
6270.82    1999.334000
6272.45    2035.864000
6274.09    1965.243000
6275.73    1951.452000
6277.36    1951.255000
6279.00    1907.414000
6280.64    1922.626000
6282.27    1961.472000
6283.91    2008.929000
6285.54    1976.670000
6287.18    1964.469000
6288.81    1967.022000
6290.45    1974.525000
6292.09    1988.822000
6293.72    2069.635000
6295.36    2026.436000
6297.00    1836.732000
6298.63    1431.667000
6300.27    1423.167000
6301.90    1623.525000
6303.54    2165.069000
6305.18    2378.441000
6306.81    2091.664000
6308.45    1854.960000
6310.09    1825.647000
6311.72    1818.758000
6313.36    1866.599000
6314.99    1919.080000
6316.63    1968.670000
6318.27    1885.911000
6319.90    1894.490000
6321.54    1929.251000
6323.18    1996.538000
6324.81    1803.375000
6326.45    1800.258000
6328.08    1851.769000
6329.72    1834.247000
6331.36    1902.508000
6332.99    1934.839000
6334.63    1934.200000
6336.27    1717.658000
6337.90    1806.096000
6339.54    1873.857000
6341.17    1923.755000
6342.81    1892.023000
6344.45    1909.978000
6346.08    1924.388000
6347.72    1936.160000
6349.35    1929.873000
6350.99    1910.574000
6352.63    1898.860000
6354.26    1903.307000
6355.90    2079.351000
6357.54    2138.598000
6359.17    2123.059000
6360.81    1978.966000
6362.44    1729.542000
6364.08    1665.552000
6365.72    1687.274000
6367.35    1899.095000
6368.99    1998.347000
6370.63    1955.039000
6372.26    1891.068000
6373.90    1876.392000
6375.53    1917.915000
6377.17    1933.167000
6378.81    1932.764000
6380.44    1898.553000
6382.08    2005.088000
6383.72    2019.006000
6385.35    1983.276000
6386.99    1873.484000
6388.62    1890.755000
6390.26    1935.351000
6391.90    1991.858000
6393.53    1965.970000
6395.17    1888.342000
6396.81    1846.116000
6398.44    1833.652000
6400.08    1902.440000
6401.71    1901.854000
6403.35    1887.058000
6404.99    1858.493000
6406.62    1892.947000
6408.26    1914.479000
6409.90    1934.801000
6411.53    1966.307000
6413.17    1841.669000
6414.80    1866.429000
6416.44    1927.166000
6418.08    2049.719000
6419.71    1983.102000
6421.35    2008.398000
6422.98    2044.031000
6424.62    2062.058000
6426.26    1907.852000
6427.89    1900.314000
6429.53    1925.037000
6431.16    1914.475000
6432.80    1874.045000
6434.44    1843.437000
6436.07    1821.400000
6437.71    1879.230000
6439.35    1929.056000
6440.98    1911.343000
6442.62    1848.401000
6444.26    1796.078000
6445.89    1839.406000
6447.53    1858.919000
6449.16    1857.903000
6450.80    1978.018000
6452.44    2011.391000
6454.07    1930.827000
6455.71    1707.073000
6457.35    1811.954000
6458.98    1906.138000
6460.62    1910.935000
6462.25    1773.400000
6463.89    1863.539000
6465.52    1924.963000
6467.16    1962.078000
6468.80    1962.004000
6470.44    1936.056000
6472.07    1942.571000
6473.71    1938.338000
6475.34    1883.919000
6476.98    1835.602000
6478.61    1814.632000
6480.25    1805.158000
6481.89    1835.578000
6483.52    1806.646000
6485.16    1838.829000
6486.80    1893.652000
6488.43    1957.655000
6490.07    1884.776000
6491.70    1879.141000
6493.34    1907.547000
6494.98    2007.110000
6496.61    1928.800000
6498.25    1858.445000
6499.89    1786.262000
6501.52    1781.452000
6503.16    1836.504000
6504.80    1896.109000
6506.43    1964.976000
6508.07    2104.784000
6509.70    2054.664000
6511.34    1950.907000
6512.98    1772.406000
6514.61    1761.165000
6516.25    1801.061000
6517.88    1825.992000
6519.52    1821.724000
6521.16    1866.108000
6522.79    1890.135000
6524.43    1921.292000
6526.06    1992.864000
6527.70    1942.490000
6529.34    1891.703000
6530.97    1860.628000
6532.61    1936.309000
6534.25    1843.259000
6535.88    1781.539000
6537.52    1754.329000
6539.15    1931.124000
6540.79    1903.104000
6542.43    1843.381000
6544.06    1776.500000
6545.70    1920.389000
6547.34    1868.479000
6548.97    1775.858000
6550.61    1650.861000
6552.24    1709.728000
6553.88    1818.907000
6555.52    1888.229000
6557.15    1924.745000
6558.79    1866.100000
6560.43    1762.515000
6562.06    1623.483000
6563.70    1431.176000
6565.33    1640.587000
6566.97    1768.879000
6568.61    1825.356000
6570.24    1765.499000
6571.88    1779.890000
6573.52    1839.944000
6575.15    1899.090000
6576.79    1950.340000
6578.42    1794.201000
6580.06    1738.596000
6581.70    1714.426000
6583.33    1749.024000
6584.97    1762.352000
6586.60    1766.760000
6588.24    1777.359000
6589.88    1855.390000
6591.51    1810.810000
6593.15    1806.080000
6594.79    1812.966000
6596.42    1811.562000
6598.06    1885.263000
6599.69    1880.912000
6601.33    1823.136000
6602.97    1705.982000
6604.60    1857.905000
6606.24    1910.625000
6607.88    1882.001000
6609.51    1793.658000
6611.15    1860.263000
6612.78    1871.045000
6614.42    1819.209000
6616.06    1772.090000
6617.69    1831.132000
6619.33    1878.806000
6620.97    1910.776000
6622.60    1865.683000
6624.24    1835.738000
6625.87    1814.881000
6627.51    1816.305000
6629.15    1886.049000
6630.78    1883.923000
6632.42    1866.761000
6634.06    1849.477000
6635.69    1851.147000
6637.33    1799.272000
6638.96    1746.021000
6640.60    1778.431000
6642.24    1933.385000
6643.87    2055.470000
6645.51    2170.032000
6647.15    2334.084000
6648.78    2222.115000
6650.42    2110.549000
6652.05    1990.821000
6653.69    1902.194000
6655.32    1867.167000
6656.96    1794.955000
6658.60    1685.279000
6660.23    1680.340000
6661.87    1667.428000
6663.51    1711.625000
6665.14    1825.265000
6666.78    1991.645000
6668.41    1976.542000
6670.05    2010.147000
6671.69    2146.188000
6673.32    2204.106000
6674.96    2000.481000
6676.60    1817.270000
6678.23    1720.836000
6679.87    1637.577000
6681.51    1640.464000
6683.14    1664.108000
6684.78    1723.107000
6686.41    1678.896000
6688.05    1701.018000
6689.69    1730.496000
6691.32    1726.900000
6692.96    1742.658000
6694.60    1773.576000
6696.23    1801.218000
6697.87    1786.281000
6699.50    1774.039000
6701.14    1747.684000
6702.77    1712.088000
6704.41    1704.588000
6706.05    1659.307000
6707.68    1688.184000
6709.32    1766.186000
6710.96    1793.597000
6712.59    1769.337000
6714.23    1771.440000
6715.86    1802.149000
6717.50    1580.078000
6719.14    1574.189000
6720.77    1621.486000
6722.41    1751.537000
6724.05    1739.593000
6725.68    1724.658000
6727.32    1711.604000
6728.95    1705.881000
6730.59    1772.483000
6732.23    1774.880000
6733.86    1774.762000
6735.50    1800.864000
6737.14    1762.406000
6738.77    1734.098000
6740.41    1712.508000
6742.04    1718.754000
6743.68    1655.471000
6745.32    1667.974000
6746.95    1706.323000
6748.59    1783.765000
6750.23    1728.011000
6751.86    1650.718000
6753.50    1574.489000
6755.13    1701.917000
6756.77    1769.792000
6758.41    1771.524000
6760.04    1728.889000
6761.68    1736.908000
6763.31    1750.132000
6764.95    1729.648000
6766.59    1678.859000
6768.22    1642.618000
6769.86    1680.084000
6771.50    1721.842000
6773.13    1779.381000
6774.77    1727.189000
6776.40    1702.413000
6778.04    1710.564000
6779.68    1782.698000
6781.31    1695.768000
6782.95    1668.152000
6784.59    1652.869000
6786.22    1658.306000
6787.86    1590.298000
6789.49    1611.825000
6791.13    1649.615000
6792.77    1694.379000
6794.40    1691.348000
6796.04    1695.235000
6797.68    1692.780000
6799.31    1662.759000
6800.95    1671.870000
6802.58    1669.038000
6804.22    1663.241000
6805.86    1699.300000
6807.49    1712.637000
6809.13    1704.539000
6810.77    1678.984000
6812.40    1628.046000
6814.04    1561.327000
6815.67    1551.634000
6817.31    1586.352000
6818.95    1859.245000
6820.58    1794.285000
6822.22    1716.203000
6823.85    1617.548000
6825.49    1582.193000
6827.13    1517.999000
6828.76    1493.629000
6830.40    1540.319000
6832.04    1564.118000
6833.67    1589.292000
6835.31    1607.175000
6836.94    1615.398000
6838.58    1592.933000
6840.22    1577.456000
6841.85    1560.865000
6843.49    1541.157000
6845.12    1589.145000
6846.76    1618.875000
6848.40    1622.030000
6850.03    1525.793000
6851.67    1556.358000
6853.31    1625.569000
6854.94    1696.556000
6856.58    1659.083000
6858.22    1674.701000
6859.85    1663.567000
6861.49    1627.836000
6863.12    1477.458000
6864.76    1465.183000
6866.40    1405.362000
6868.03    1304.639000
6869.67    1230.330000
6871.31    1235.593000
6872.94    1224.818000
6874.58    1196.853000
6876.21    1196.285000
6877.85    1284.097000
6879.48    1380.392000
6881.12    1498.164000
6882.76    1459.096000
6884.40    1444.513000
6886.03    1428.486000
6887.67    1408.851000
6889.30    1285.551000
6890.94    1304.874000
6892.57    1344.448000
6894.21    1391.646000
6895.85    1356.304000
6897.48    1367.151000
6899.12    1385.937000
6900.76    1407.989000
6902.39    1394.570000
6904.03    1459.992000
6905.66    1546.351000
6907.30    1595.355000
6908.94    1490.569000
6910.57    1460.217000
6912.21    1457.589000
6913.85    1412.637000
6915.48    1441.589000
6917.12    1461.806000
6918.76    1475.676000
6920.39    1509.897000
6922.03    1605.855000
6923.66    1615.879000
6925.30    1545.647000
6926.94    1408.327000
6928.57    1425.686000
6930.21    1416.162000
6931.84    1368.286000
6933.48    1388.385000
6935.12    1461.189000
6936.75    1495.776000
6938.39    1457.432000
6940.02    1370.684000
6941.66    1385.500000
6943.30    1413.848000
6944.93    1452.409000
6946.57    1430.998000
6948.21    1417.331000
6949.84    1427.983000
6951.48    1546.745000
6953.11    1373.285000
6954.75    1353.381000
6956.39    1408.369000
6958.02    1665.108000
6959.66    1462.833000
6961.30    1411.724000
6962.93    1421.504000
6964.57    1444.873000
6966.20    1505.714000
6967.84    1538.483000
6969.48    1553.141000
6971.11    1544.968000
6972.75    1511.737000
6974.39    1545.296000
6976.02    1640.676000
6977.66    1560.150000
6979.29    1573.491000
6980.93    1565.696000
6982.57    1533.894000
6984.20    1544.450000
6985.84    1501.603000
6987.48    1480.229000
6989.11    1505.035000
6990.75    1364.278000
6992.38    1394.453000
6994.02    1460.889000
6995.66    1585.251000
6997.29    1644.865000
6998.93    1631.484000
7000.56    1603.290000
7002.20    1578.817000
7003.84    1407.808000
7005.47    1352.536000
7007.11    1363.688000
7008.75    1588.964000
7010.38    1568.929000
7012.02    1518.296000
7013.65    1465.396000
7015.29    1539.638000
7016.93    1476.301000
7018.56    1485.785000
7020.20    1528.804000
7021.84    1477.688000
7023.47    1365.632000
7025.11    1350.622000
7026.74    1406.371000
7028.38    1302.205000
7030.02    1430.785000
7031.65    1486.404000
7033.29    1461.996000
7034.93    1440.879000
7036.56    1394.238000
7038.20    1388.476000
7039.83    1454.494000
7041.47    1473.035000
7043.11    1544.393000
7044.74    1570.000000
7046.38    1487.808000
7048.02    1446.338000
7049.65    1558.090000
7051.29    1632.278000
7052.92    1521.203000
7054.56    1396.067000
7056.20    1373.224000
7057.83    1398.294000
7059.47    1550.253000
7061.10    1421.797000
7062.74    1369.918000
7064.38    1349.519000
7066.01    1398.590000
7067.65    1438.192000
7069.28    1430.087000
7070.92    1409.086000
7072.56    1579.136000
7074.19    1372.111000
7075.83    1355.903000
7077.47    1467.356000
7079.10    1432.796000
7080.74    1482.534000
7082.38    1488.268000
7084.01    1448.384000
7085.65    1343.260000
7087.28    1475.509000
7088.92    1558.109000
7090.56    1573.282000
7092.19    1467.845000
7093.83    1478.064000
7095.47    1444.141000
7097.10    1302.635000
7098.74    1403.236000
7100.37    1458.165000
7102.01    1517.107000
7103.65    1620.844000
7105.28    1424.129000
7106.92    1438.091000
7108.56    1483.367000
7110.19    1481.087000
7111.83    1439.522000
7113.46    1363.927000
7115.10    1292.076000
7116.73    1344.071000
7118.37    1350.541000
7120.01    1394.686000
7121.64    1453.990000
7123.28    1487.896000
7124.92    1542.111000
7126.55    1543.963000
7128.19    1509.151000
7129.82    1434.397000
7131.46    1251.963000
7133.10    1264.979000
7134.73    1455.693000
7136.37    1447.144000
7138.01    1370.874000
7139.64    1358.114000
7141.28    1433.818000
7142.91    1491.953000
7144.55    1420.692000
7146.19    1399.564000
7147.82    1487.895000
7149.46    1298.836000
7151.10    1297.120000
7152.73    1285.481000
7154.37    1197.467000
7156.00    1237.145000
7157.64    1284.807000
7159.28    1314.606000
7160.91    1274.723000
7162.55    1255.973000
7164.19    1289.815000
7165.82    1307.057000
7167.46    1146.285000
7169.09    1078.719000
7170.73    1083.516000
7172.37    1117.275000
7174.00    1158.862000
7175.64    1130.773000
7177.27    1112.063000
7178.91    1095.069000
7180.55    1055.103000
7182.18    1101.731000
7183.82    1099.037000
7185.46    1052.334000
7187.09    946.560100
7188.73    969.045200
7190.36    994.741100
7192.00    1025.762000
7193.64    1131.304000
7195.27    1146.654000
7196.91    1106.303000
7198.55    977.251500
7200.18    1047.644000
7201.82    1033.134000
7203.45    1016.999000
7205.09    1020.968000
7206.73    1018.427000
7208.36    1046.263000
7210.00    1081.593000
7211.64    1131.759000
7213.27    1190.584000
7214.91    1201.319000
7216.54    1217.616000
7218.18    1334.258000
7219.82    1321.816000
7221.45    1259.285000
7223.09    1174.988000
7224.73    1089.474000
7226.36    1123.415000
7228.00    1160.869000
7229.63    1195.704000
7231.27    1147.484000
7232.91    1060.372000
7234.54    1000.901000
7236.18    956.026200
7237.81    1026.293000
7239.45    1024.323000
7241.09    1022.684000
7242.72    1021.033000
7244.36    1061.563000
7246.00    1044.485000
7247.63    1030.388000
7249.27    1025.043000
7250.90    973.519100
7252.54    1014.364000
7254.18    1063.293000
7255.81    1124.734000
7257.45    1097.957000
7259.09    1052.835000
7260.72    1012.339000
7262.36    994.791500
7263.99    1029.549000
7265.63    1072.779000
7267.27    1099.107000
7268.90    1044.561000
7270.54    1075.737000
7272.18    1046.984000
7273.81    1006.278000
7275.45    1034.139000
7277.08    947.992100
7278.72    942.903100
7280.36    979.291100
7281.99    1078.970000
7283.63    1120.995000
7285.27    1114.651000
7286.90    1071.904000
7288.54    1013.715000
7290.17    950.759200
7291.81    956.255000
7293.44    1027.838000
7295.08    1097.480000
7296.72    1064.975000
7298.35    1052.251000
7299.99    1071.080000
7301.63    923.143600
7303.26    936.093600
7304.90    980.749600
7306.53    1077.351000
7308.17    992.757800
7309.81    992.169400
7311.44    1014.141000
7313.08    1075.635000
7314.72    1096.743000
7316.35    1096.713000
7317.99    1087.714000
7319.62    1064.811000
7321.26    937.832300
7322.90    1001.106000
7324.53    1119.584000
7326.17    1234.642000
7327.81    1186.315000
7329.44    1176.192000
7331.08    1167.935000
7332.72    1023.658000
7334.35    1060.620000
7335.99    1097.150000
7337.62    1135.552000
7339.26    1254.237000
7340.90    1190.769000
7342.53    1142.248000
7344.17    1103.644000
7345.80    1051.313000
7347.44    1104.681000
7349.08    1173.186000
7350.71    1269.093000
7352.35    1163.715000
7353.98    1165.159000
7355.62    1198.688000
7357.26    1289.315000
7358.89    1192.950000
7360.53    1214.110000
7362.17    1199.650000
7363.80    1065.896000
7365.44    1117.057000
7367.07    1059.063000
7368.71    1020.264000
7370.35    1125.300000
7371.98    1067.064000
7373.62    985.533700
7375.26    926.274800
7376.89    1035.805000
7378.53    1056.820000
7380.16    1025.642000
7381.80    988.855300
7383.44    1102.651000
7385.07    1080.082000
7386.71    1106.486000
7388.35    1155.697000
7389.98    1160.483000
7391.62    1137.363000
7393.25    1106.232000
7394.89    1065.201000
7396.53    1143.766000
7398.16    1122.399000
7399.80    1105.922000
7401.44    1093.095000
7403.07    1066.331000
7404.71    1088.300000
7406.34    1132.279000
7407.98    1218.477000
7409.62    1135.591000
7411.25    1085.477000
7412.89    1066.258000
7414.52    1111.889000
7416.16    1190.286000
7417.80    1167.170000
7419.43    1131.887000
7421.07    1110.234000
7422.71    1171.660000
7424.34    1178.481000
7425.98    1169.450000
7427.61    1150.285000
7429.25    1184.929000
7430.89    1190.253000
7432.52    1187.339000
7434.16    1206.878000
7435.80    1155.867000
7437.43    1132.278000
7439.07    1120.995000
7440.70    1153.656000
7442.34    1145.503000
7443.98    1112.579000
7445.61    1059.028000
7447.25    1059.769000
7448.89    1081.084000
7450.52    1084.342000
7452.16    1069.623000
7453.79    1017.386000
7455.43    1017.740000
7457.07    1020.857000
7458.70    1031.358000
7460.34    1120.307000
7461.98    1156.686000
7463.61    1170.338000
7465.25    1149.106000
7466.88    1071.489000
7468.52    1085.794000
7470.16    1122.838000
7471.79    1199.815000
7473.43    1127.502000
7475.06    1091.741000
7476.70    1067.898000
7478.34    1067.668000
7479.97    1084.170000
7481.61    1073.112000
7483.24    1049.912000
7484.88    1010.912000
7486.52    1028.629000
7488.15    1051.328000
7489.79    1070.929000
7491.43    1046.551000
7493.06    1141.113000
7494.70    1156.232000
7496.34    1119.018000
7497.97    1052.718000
7499.61    1108.845000
7501.24    1112.345000
7502.88    1068.953000
7504.52    1065.237000
7506.15    1056.768000
7507.79    1020.488000
7509.43    949.289400
7511.06    909.677500
7512.70    891.251200
7514.33    925.094800
7515.97    1059.921000
7517.60    1126.950000
7519.24    1029.946000
7520.88    927.214200
7522.52    852.391400
7524.15    1093.881000
7525.79    1092.607000
7527.42    1049.911000
7529.06    1021.266000
7530.69    987.910000
7532.33    989.647200
7533.97    991.743800
7535.60    944.458200
7537.24    1001.160000
7538.88    996.317700
7540.51    973.299600
7542.15    1039.962000
7543.78    978.555400
7545.42    988.366000
7547.06    1031.303000
7548.69    934.294100
7550.33    996.281100
7551.97    1016.642000
7553.60    1002.069000
7555.24    1010.757000
7556.88    1002.971000
7558.51    997.642900
7560.15    995.211300
7561.78    971.083400
7563.42    927.754200
7565.06    940.053700
7566.69    1050.887000
7568.33    1088.365000
7569.96     0.000000
7571.60     0.000000
7573.24     0.000000
7574.87     0.000000
7576.51     0.000000
7578.15     0.000000
